Units are: observed wavelength (Ang), observed flux (10^-15 erg/s/cm^2/Ang)
       4239.7950      0.30874380
       4241.0671      0.29877620
       4242.3393      0.32763710
       4243.6115      0.35253410
       4244.8837      0.32100450
       4246.1558      0.25431990
       4247.4281      0.29741360
       4248.7003      0.30211420
       4249.9724      0.31436060
       4251.2446      0.32341430
       4252.5168      0.31183050
       4253.7891      0.36272620
       4255.0612      0.31641850
       4256.3334      0.35700210
       4257.6056      0.32461930
       4258.8777      0.32644010
       4260.1499      0.38452220
       4261.4222      0.40252770
       4262.6944      0.35527010
       4263.9665      0.36167630
       4265.2387      0.32369870
       4266.5109      0.31825380
       4267.7830      0.30709250
       4269.0553      0.33611330
       4270.3275      0.28528250
       4271.5997      0.33003230
       4272.8718      0.32500370
       4274.1440      0.32944350
       4275.4163      0.36020770
       4276.6884      0.34539610
       4277.9606      0.30600740
       4279.2328      0.27906750
       4280.5049      0.31276620
       4281.7771      0.29442840
       4283.0494      0.25303420
       4284.3216      0.32992030
       4285.5937      0.33840420
       4286.8659      0.29629090
       4288.1381      0.32749100
       4289.4102      0.36711270
       4290.6825      0.33148370
       4291.9547      0.30875580
       4293.2269      0.29349130
       4294.4990      0.33514790
       4295.7712      0.32135140
       4297.0435      0.35625460
       4298.3156      0.32664900
       4299.5878      0.28019430
       4300.8600      0.27622180
       4302.1322      0.31529340
       4303.4043      0.26144810
       4304.6766      0.30712340
       4305.9488      0.28799940
       4307.2209      0.33031540
       4308.4931      0.35779870
       4309.7653      0.34731880
       4311.0374      0.32556340
       4312.3097      0.31155540
       4313.5819      0.29550350
       4314.8541      0.32777500
       4316.1262      0.34815610
       4317.3984      0.31024890
       4318.6707      0.27879850
       4319.9428      0.27195310
       4321.2150      0.25981600
       4322.4872      0.30127420
       4323.7594      0.31902180
       4325.0315      0.34192730
       4326.3038      0.28146800
       4327.5760      0.35793170
       4328.8481      0.26232270
       4330.1203      0.29146210
       4331.3925      0.30166900
       4332.6647      0.31937280
       4333.9369      0.34518010
       4335.2091      0.32365210
       4336.4813      0.33561010
       4337.7534      0.29482460
       4339.0256      0.25910440
       4340.2979      0.32609380
       4341.5701      0.32341720
       4342.8422      0.32271960
       4344.1144      0.31167720
       4345.3866      0.32937080
       4346.6587      0.30287680
       4347.9310      0.30639840
       4349.2032      0.31831430
       4350.4753      0.36553730
       4351.7475      0.37718820
       4353.0197      0.34658720
       4354.2919      0.31789410
       4355.5641      0.33531010
       4356.8363      0.30973810
       4358.1085      0.32601490
       4359.3806      0.35105000
       4360.6528      0.34644570
       4361.9251      0.34351040
       4363.1973      0.31543200
       4364.4694      0.30467750
       4365.7416      0.30151890
       4367.0138      0.30297880
       4368.2859      0.33814200
       4369.5582      0.35502120
       4370.8304      0.27690800
       4372.1026      0.31812020
       4373.3747      0.33201720
       4374.6469      0.34896780
       4375.9191      0.37046590
       4377.1913      0.37458480
       4378.4635      0.31921430
       4379.7357      0.35512560
       4381.0078      0.32464120
       4382.2800      0.27580970
       4383.5523      0.32772730
       4384.8245      0.30684220
       4386.0966      0.30816960
       4387.3688      0.33277810
       4388.6410      0.32445370
       4389.9131      0.32099490
       4391.1854      0.33386740
       4392.4576      0.34557500
       4393.7298      0.30885060
       4395.0019      0.29875990
       4396.2741      0.30589220
       4397.5463      0.31076530
       4398.8185      0.33813210
       4400.0907      0.28985120
       4401.3629      0.31150580
       4402.6351      0.30941230
       4403.9072      0.28467980
       4405.1795      0.28320600
       4406.4517      0.31974520
       4407.7238      0.33177670
       4408.9960      0.30820480
       4410.2682      0.26001130
       4411.5404      0.27975260
       4412.8126      0.29949500
       4414.0848      0.30244720
       4415.3570      0.29494370
       4416.6291      0.28046700
       4417.9013      0.27254450
       4419.1735      0.25516170
       4420.4457      0.28255500
       4421.7179      0.31635930
       4422.9901      0.27916320
       4424.2623      0.26680120
       4425.5344      0.31201670
       4426.8067      0.30481950
       4428.0789      0.25953630
       4429.3510      0.27706420
       4430.6232      0.24860580
       4431.8954      0.24319360
       4433.1676      0.26081060
       4434.4398      0.26054700
       4435.7120      0.26466160
       4436.9842      0.27523280
       4438.2563      0.27219930
       4439.5285      0.28028460
       4440.8007      0.28380060
       4442.0730      0.28167820
       4443.3451      0.24744140
       4444.6173      0.24017080
       4445.8895      0.27352230
       4447.1616      0.26040070
       4448.4339      0.26027310
       4449.7061      0.23919350
       4450.9782      0.24183620
       4452.2504      0.25618380
       4453.5226      0.24636530
       4454.7948      0.29257190
       4456.0670      0.24337020
       4457.3392      0.22556930
       4458.6114      0.27397660
       4459.8835      0.24978250
       4461.1557      0.27040590
       4462.4279      0.28985860
       4463.7002      0.22756560
       4464.9723      0.26800230
       4466.2445      0.26244180
       4467.5167      0.25378780
       4468.7888      0.22916080
       4470.0611      0.25375160
       4471.3333      0.25864430
       4472.6055      0.28136530
       4473.8776      0.28533970
       4475.1498      0.28244830
       4476.4220      0.25761390
       4477.6942      0.29328810
       4478.9664      0.29740860
       4480.2386      0.28264090
       4481.5108      0.28072670
       4482.7829      0.31816280
       4484.0551      0.27826480
       4485.3274      0.29340400
       4486.5995      0.33017480
       4487.8717      0.31370010
       4489.1439      0.32323880
       4490.4160      0.30657970
       4491.6883      0.30803450
       4492.9605      0.31441550
       4494.2327      0.32853010
       4495.5048      0.35899820
       4496.7770      0.36349120
       4498.0492      0.32617200
       4499.3214      0.31591660
       4500.5936      0.32135170
       4501.8658      0.37026790
       4503.1380      0.36650660
       4504.4101      0.35604440
       4505.6823      0.38752540
       4506.9546      0.38564110
       4508.2267      0.39777910
       4509.4989      0.38356180
       4510.7711      0.37695270
       4512.0433      0.39862240
       4513.3155      0.41022500
       4514.5877      0.40403030
       4515.8599      0.41710340
       4517.1320      0.44798690
       4518.4042      0.42324660
       4519.6764      0.43268770
       4520.9486      0.46007120
       4522.2208      0.46724750
       4523.4930      0.49061100
       4524.7652      0.48971380
       4526.0373      0.50008270
       4527.3095      0.49640030
       4528.5818      0.48629210
       4529.8539      0.47926570
       4531.1261      0.48890270
       4532.3983      0.52092160
       4533.6705      0.48251280
       4534.9427      0.49463280
       4536.2149      0.50261920
       4537.4871      0.52689350
       4538.7592      0.53580830
       4540.0314      0.50103930
       4541.3036      0.51062780
       4542.5759      0.52693990
       4543.8480      0.52733300
       4545.1202      0.56955930
       4546.3924      0.57958460
       4547.6645      0.58224070
       4548.9367      0.58446970
       4550.2090      0.56858040
       4551.4812      0.57325160
       4552.7533      0.57949610
       4554.0255      0.54240800
       4555.2977      0.56213810
       4556.5699      0.57394460
       4557.8421      0.59148440
       4559.1143      0.59194450
       4560.3864      0.60474160
       4561.6586      0.60557770
       4562.9308      0.58474480
       4564.2031      0.61177930
       4565.4752      0.59825150
       4566.7474      0.63675410
       4568.0196      0.63134260
       4569.2917      0.64108860
       4570.5639      0.63529940
       4571.8362      0.67018600
       4573.1084      0.62416810
       4574.3805      0.64673030
       4575.6527      0.64567020
       4576.9249      0.62799800
       4578.1971      0.63002110
       4579.4693      0.64002760
       4580.7415      0.64317240
       4582.0137      0.59258850
       4583.2858      0.63318890
       4584.5580      0.69791330
       4585.8303      0.69485530
       4587.1024      0.67040160
       4588.3746      0.68688790
       4589.6468      0.66633980
       4590.9190      0.68955200
       4592.1911      0.69240420
       4593.4634      0.68548740
       4594.7356      0.71038010
       4596.0077      0.73231480
       4597.2799      0.71007160
       4598.5521      0.69542050
       4599.8243      0.73129170
       4601.0965      0.73954270
       4602.3687      0.72448020
       4603.6409      0.69524990
       4604.9130      0.69905470
       4606.1852      0.70042850
       4607.4575      0.70257490
       4608.7296      0.69839810
       4610.0018      0.66973820
       4611.2740      0.63623080
       4612.5462      0.67415810
       4613.8183      0.65523640
       4615.0906      0.67045250
       4616.3628      0.69373790
       4617.6349      0.69172630
       4618.9071      0.66407920
       4620.1793      0.68364840
       4621.4516      0.68740590
       4622.7237      0.70088540
       4623.9959      0.73772840
       4625.2681      0.67190730
       4626.5402      0.68800580
       4627.8124      0.69935540
       4629.0847      0.67354810
       4630.3568      0.73060440
       4631.6290      0.72960880
       4632.9012      0.71796840
       4634.1734      0.71022030
       4635.4455      0.72192740
       4636.7178      0.70391010
       4637.9900      0.70887590
       4639.2621      0.69480000
       4640.5343      0.69954530
       4641.8065      0.71954460
       4643.0788      0.70909930
       4644.3509      0.70890480
       4645.6231      0.72069860
       4646.8953      0.72590610
       4648.1674      0.69290070
       4649.4396      0.67469940
       4650.7119      0.69673280
       4651.9841      0.68610690
       4653.2562      0.68585770
       4654.5284      0.68995630
       4655.8006      0.69653040
       4657.0727      0.69338270
       4658.3450      0.65529780
       4659.6172      0.64877730
       4660.8894      0.69185610
       4662.1615      0.68484370
       4663.4337      0.64820820
       4664.7060      0.64711700
       4665.9781      0.64301910
       4667.2503      0.68016600
       4668.5225      0.65356050
       4669.7946      0.64610910
       4671.0668      0.65496270
       4672.3391      0.63931820
       4673.6113      0.62566680
       4674.8834      0.62631000
       4676.1556      0.63636620
       4677.4278      0.62711340
       4678.6999      0.62507990
       4679.9722      0.62847820
       4681.2444      0.60362870
       4682.5166      0.59217640
       4683.7887      0.62351600
       4685.0609      0.57865690
       4686.3332      0.59965940
       4687.6053      0.60657920
       4688.8775      0.57894150
       4690.1497      0.56688690
       4691.4219      0.59867280
       4692.6940      0.60885350
       4693.9663      0.60067890
       4695.2385      0.57923800
       4696.5106      0.57812730
       4697.7828      0.58790010
       4699.0550      0.58051060
       4700.3271      0.58314970
       4701.5994      0.55574040
       4702.8716      0.56123270
       4704.1438      0.57734490
       4705.4159      0.55969140
       4706.6881      0.56281020
       4707.9604      0.53385680
       4709.2325      0.53964390
       4710.5047      0.55996850
       4711.7769      0.55607700
       4713.0491      0.52597100
       4714.3212      0.52678640
       4715.5935      0.51731990
       4716.8657      0.50572140
       4718.1378      0.48795730
       4719.4100      0.50229940
       4720.6822      0.49838030
       4721.9544      0.50047080
       4723.2266      0.49832360
       4724.4988      0.49184790
       4725.7710      0.51122650
       4727.0431      0.49018280
       4728.3153      0.49527510
       4729.5876      0.50630270
       4730.8598      0.50512980
       4732.1319      0.49805550
       4733.4041      0.48166260
       4734.6763      0.44892740
       4735.9484      0.47434820
       4737.2207      0.46768950
       4738.4929      0.47459880
       4739.7650      0.48076430
       4741.0372      0.45355260
       4742.3094      0.45865660
       4743.5816      0.47318860
       4744.8538      0.46348380
       4746.1260      0.48211900
       4747.3982      0.47013860
       4748.6703      0.47340430
       4749.9425      0.47737330
       4751.2148      0.45961240
       4752.4870      0.46688430
       4753.7591      0.46774940
       4755.0313      0.45693180
       4756.3035      0.44306010
       4757.5756      0.47465050
       4758.8479      0.47665300
       4760.1201      0.46955860
       4761.3923      0.47903780
       4762.6644      0.45564850
       4763.9366      0.43660380
       4765.2088      0.43495720
       4766.4810      0.45793080
       4767.7532      0.45437570
       4769.0254      0.44381990
       4770.2975      0.44702260
       4771.5697      0.47676840
       4772.8420      0.45578930
       4774.1142      0.43269310
       4775.3863      0.44187540
       4776.6585      0.43594370
       4777.9307      0.44504200
       4779.2028      0.42648640
       4780.4751      0.44165880
       4781.7473      0.44043440
       4783.0195      0.40881430
       4784.2916      0.41724510
       4785.5638      0.44125570
       4786.8360      0.45086720
       4788.1082      0.42857950
       4789.3804      0.42834100
       4790.6526      0.40301290
       4791.9248      0.40078900
       4793.1969      0.40553210
       4794.4692      0.39349650
       4795.7414      0.39859150
       4797.0135      0.39462440
       4798.2857      0.38713450
       4799.5579      0.38579960
       4800.8301      0.36664050
       4802.1023      0.36749420
       4803.3745      0.37453360
       4804.6467      0.34884310
       4805.9188      0.36069980
       4807.1910      0.34328650
       4808.4632      0.36178590
       4809.7354      0.37192170
       4811.0076      0.37194360
       4812.2798      0.34503290
       4813.5520      0.34997550
       4814.8241      0.35369850
       4816.0964      0.34483640
       4817.3686      0.35042330
       4818.6407      0.33387640
       4819.9129      0.31654500
       4821.1851      0.32202900
       4822.4573      0.32987440
       4823.7295      0.32381120
       4825.0017      0.34027740
       4826.2739      0.33322770
       4827.5460      0.33152870
       4828.8182      0.34203360
       4830.0904      0.30007720
       4831.3627      0.29547070
       4832.6348      0.32674860
       4833.9070      0.31172560
       4835.1792      0.32511080
       4836.4513      0.32763050
       4837.7236      0.34462450
       4838.9958      0.34125480
       4840.2679      0.34050760
       4841.5401      0.34432720
       4842.8123      0.35292470
       4844.0845      0.36682950
       4845.3567      0.37177950
       4846.6289      0.38217910
       4847.9011      0.35732360
       4849.1732      0.34874590
       4850.4454      0.36124570
       4851.7176      0.37276310
       4852.9899      0.36880120
       4854.2620      0.36068980
       4855.5342      0.36295010
       4856.8064      0.35404920
       4858.0785      0.39300420
       4859.3508      0.39669450
       4860.6230      0.38466770
       4861.8952      0.39196780
       4863.1673      0.39646000
       4864.4395      0.38647350
       4865.7117      0.38339560
       4866.9839      0.39807570
       4868.2561      0.39988520
       4869.5283      0.40589130
       4870.8005      0.41451040
       4872.0726      0.42309940
       4873.3448      0.41441240
       4874.6171      0.41226850
       4875.8892      0.42115600
       4877.1614      0.41283240
       4878.4336      0.43155790
       4879.7057      0.43569870
       4880.9780      0.43018370
       4882.2502      0.42559400
       4883.5224      0.45750040
       4884.7945      0.44994710
       4886.0667      0.41313590
       4887.3389      0.42407850
       4888.6111      0.43267800
       4889.8833      0.40695930
       4891.1555      0.41925750
       4892.4277      0.42544900
       4893.6998      0.41080190
       4894.9720      0.41750080
       4896.2443      0.41712920
       4897.5164      0.39959040
       4898.7886      0.40535560
       4900.0608      0.40861180
       4901.3330      0.40972390
       4902.6052      0.40687360
       4903.8774      0.40688840
       4905.1496      0.40838390
       4906.4217      0.41212420
       4907.6939      0.42713810
       4908.9661      0.40956900
       4910.2384      0.39808010
       4911.5105      0.41202100
       4912.7827      0.41126470
       4914.0549      0.38804400
       4915.3270      0.38132110
       4916.5992      0.39645350
       4917.8715      0.38096590
       4919.1436      0.38638410
       4920.4158      0.38681830
       4921.6880      0.36245660
       4922.9602      0.37993610
       4924.2324      0.38316470
       4925.5046      0.37493280
       4926.7768      0.38658680
       4928.0489      0.37620360
       4929.3211      0.36780110
       4930.5933      0.38713550
       4931.8656      0.37842340
       4933.1377      0.38404010
       4934.4099      0.38821210
       4935.6821      0.38914850
       4936.9542      0.36143890
       4938.2264      0.38149940
       4939.4987      0.39340300
       4940.7709      0.38203640
       4942.0430      0.38652950
       4943.3152      0.38682660
       4944.5874      0.37889370
       4945.8596      0.40640470
       4947.1318      0.40397490
       4948.4040      0.38682580
       4949.6761      0.39703200
       4950.9483      0.41071110
       4952.2205      0.40643510
       4953.4928      0.41188660
       4954.7649      0.40734290
       4956.0371      0.41211980
       4957.3093      0.43466260
       4958.5814      0.42873780
       4959.8536      0.42726440
       4961.1259      0.44761300
       4962.3981      0.45642820
       4963.6702      0.45740770
       4964.9424      0.45904500
       4966.2146      0.46596650
       4967.4868      0.47035820
       4968.7590      0.47986710
       4970.0312      0.50690410
       4971.3034      0.50467120
       4972.5755      0.48907420
       4973.8477      0.50644490
       4975.1200      0.51788820
       4976.3921      0.51782480
       4977.6643      0.49383620
       4978.9365      0.51543000
       4980.2087      0.55955560
       4981.4808      0.56824410
       4982.7531      0.57659370
       4984.0253      0.57298620
       4985.2974      0.56098070
       4986.5696      0.57449600
       4987.8418      0.55987170
       4989.1140      0.57986910
       4990.3862      0.58593860
       4991.6584      0.59024580
       4992.9306      0.56683610
       4994.2027      0.57099710
       4995.4749      0.58266870
       4996.7472      0.56631930
       4998.0193      0.58247640
       4999.2915      0.58619770
       5000.5637      0.60059980
       5001.8359      0.59281610
       5003.1080      0.58887680
       5004.3803      0.57386050
       5005.6525      0.59502350
