Units are: observed wavelength (Ang), observed flux (10^-15 erg/s/cm^2/Ang)
       3600.0000      0.32096538
       3601.9498      0.30981678
       3603.8997      0.26992956
       3605.8496      0.26866987
       3607.7994      0.27779645
       3609.7493      0.28503165
       3611.6991      0.27348682
       3613.6490      0.24842872
       3615.5988      0.27700514
       3617.5488      0.34144366
       3619.4987      0.29931533
       3621.4485      0.30005524
       3623.3984      0.31651324
       3625.3482      0.30949247
       3627.2981      0.27892336
       3629.2479      0.27606240
       3631.1978      0.29691750
       3633.1476      0.28493464
       3635.0975      0.27564344
       3637.0474      0.30313990
       3638.9972      0.31770298
       3640.9471      0.30378020
       3642.8969      0.29524443
       3644.8468      0.29546058
       3646.7966      0.32137161
       3648.7465      0.31737724
       3650.6964      0.29010630
       3652.6462      0.31948978
       3654.5961      0.33438426
       3656.5459      0.32668000
       3658.4958      0.31733891
       3660.4456      0.29770458
       3662.3955      0.33119372
       3664.3454      0.35209814
       3666.2953      0.32470280
       3668.2452      0.35851794
       3670.1950      0.36097199
       3672.1449      0.33519444
       3674.0947      0.32917905
       3676.0446      0.34137726
       3677.9945      0.34421772
       3679.9443      0.36753023
       3681.8942      0.38077471
       3683.8440      0.36035553
       3685.7939      0.36991379
       3687.7437      0.40612677
       3689.6936      0.41831747
       3691.6435      0.39924800
       3693.5933      0.38014433
       3695.5432      0.37770915
       3697.4930      0.40499458
       3699.4429      0.42719430
       3701.3927      0.42466173
       3703.3426      0.42240778
       3705.2924      0.39443961
       3707.2423      0.40508580
       3709.1922      0.42473087
       3711.1420      0.40398756
       3713.0919      0.41108713
       3715.0417      0.42856109
       3716.9917      0.40964043
       3718.9415      0.39742562
       3720.8914      0.39923769
       3722.8413      0.41097349
       3724.7911      0.44731632
       3726.7410      0.45480090
       3728.6908      0.45957249
       3730.6407      0.41716677
       3732.5905      0.37863293
       3734.5404      0.38773945
       3736.4903      0.39488396
       3738.4401      0.39617261
       3740.3900      0.40948373
       3742.3398      0.44616774
       3744.2897      0.44795412
       3746.2395      0.42528439
       3748.1894      0.41389742
       3750.1393      0.38713425
       3752.0891      0.36778021
       3754.0390      0.37867853
       3755.9888      0.38288465
       3757.9387      0.35857582
       3759.8885      0.35313681
       3761.8384      0.35331422
       3763.7883      0.33742288
       3765.7382      0.33231989
       3767.6881      0.34040231
       3769.6379      0.34594825
       3771.5878      0.33975002
       3773.5376      0.33066601
       3775.4875      0.34091163
       3777.4374      0.32463080
       3779.3872      0.33706716
       3781.3371      0.33429620
       3783.2869      0.31078240
       3785.2368      0.30300760
       3787.1866      0.27624157
       3789.1365      0.25948450
       3791.0863      0.26199725
       3793.0362      0.27084950
       3794.9861      0.26500392
       3796.9359      0.23466538
       3798.8858      0.23623370
       3800.8356      0.24935246
       3802.7855      0.21649586
       3804.7353      0.18578768
       3806.6852      0.20646399
       3808.6351      0.23573343
       3810.5849      0.23024599
       3812.5348      0.21722157
       3814.4846      0.20896809
       3816.4346      0.20681582
       3818.3844      0.19111755
       3820.3343      0.20666258
       3822.2842      0.18686202
       3824.2340      0.17802857
       3826.1839      0.17427287
       3828.1337      0.19105189
       3830.0836      0.20803416
       3832.0334      0.19543497
       3833.9833      0.20161074
       3835.9332      0.21468432
       3837.8830      0.21912734
       3839.8329      0.23614392
       3841.7827      0.24645284
       3843.7326      0.24257489
       3845.6824      0.23951733
       3847.6323      0.24944545
       3849.5822      0.26859832
       3851.5320      0.29702958
       3853.4819      0.29099029
       3855.4317      0.27489385
       3857.3816      0.27246892
       3859.3314      0.31152970
       3861.2813      0.33710870
       3863.2312      0.34459653
       3865.1811      0.34508240
       3867.1310      0.36688873
       3869.0808      0.36323786
       3871.0307      0.37685814
       3872.9805      0.40268987
       3874.9304      0.41019332
       3876.8802      0.40778154
       3878.8301      0.43360627
       3880.7800      0.45747763
       3882.7298      0.45175672
       3884.6797      0.48475054
       3886.6295      0.52024353
       3888.5794      0.53846568
       3890.5292      0.55742431
       3892.4791      0.55353463
       3894.4290      0.55708569
       3896.3788      0.56343102
       3898.3287      0.57982349
       3900.2785      0.60375226
       3902.2284      0.58721972
       3904.1782      0.59699166
       3906.1281      0.62437952
       3908.0780      0.63183933
       3910.0278      0.67452431
       3911.9777      0.69648969
       3913.9275      0.69763839
       3915.8775      0.72045159
       3917.8273      0.73765242
       3919.7772      0.76446396
       3921.7271      0.77504301
       3923.6769      0.75225806
       3925.6268      0.74301434
       3927.5766      0.75940132
       3929.5265      0.76064605
       3931.4763      0.75817204
       3933.4262      0.78026646
       3935.3761      0.82444024
       3937.3259      0.82575887
       3939.2758      0.82158595
       3941.2256      0.85482246
       3943.1755      0.85606503
       3945.1253      0.84869832
       3947.0752      0.88147640
       3949.0251      0.90507978
       3950.9749      0.88271564
       3952.9248      0.85358441
       3954.8746      0.87336260
       3956.8245      0.91260821
       3958.7743      0.90792274
       3960.7242      0.89852577
       3962.6740      0.89990705
       3964.6240      0.93005252
       3966.5739      0.96250874
       3968.5237      0.99154252
       3970.4736       1.0059636
       3972.4234       1.0062835
       3974.3733       1.0044477
       3976.3231      0.97096962
       3978.2730      0.96174884
       3980.2229       1.0040909
       3982.1727      0.99599695
       3984.1226      0.95315254
       3986.0724      0.94610333
       3988.0223      0.97284698
       3989.9721      0.97318131
       3991.9220      0.94594842
       3993.8719      0.96984589
       3995.8217      0.98638850
       3997.7716      0.96528012
       3999.7214      0.94686455
       4001.6713      0.94250393
       4003.6211      0.97512704
       4005.5710      0.98548371
       4007.5209      0.95725763
       4009.4707      0.93644154
       4011.4206      0.93318737
       4013.3704      0.94269544
       4015.3204      0.93416435
       4017.2702      0.91879678
       4019.2201      0.94382554
       4021.1700      0.96571881
       4023.1198      0.94358897
       4025.0697      0.90370411
       4027.0195      0.89074332
       4028.9694      0.92736202
       4030.9192      0.94143885
       4032.8691      0.92043096
       4034.8190      0.88907373
       4036.7688      0.89065719
       4038.7187      0.91226131
       4040.6685      0.95342660
       4042.6184      0.93634826
       4044.5682      0.89044744
       4046.5181      0.89494812
       4048.4679      0.90992665
       4050.4178      0.94452029
       4052.3677      0.95267379
       4054.3175      0.90761769
       4056.2674      0.90097141
       4058.2172      0.90766835
       4060.1671      0.88094652
       4062.1169      0.86329335
       4064.0668      0.88525826
       4066.0168      0.88693404
       4067.9666      0.84062564
       4069.9165      0.79430950
       4071.8663      0.79906821
       4073.8162      0.82582289
       4075.7660      0.82028842
       4077.7159      0.81632191
       4079.6658      0.82339966
       4081.6156      0.80209798
       4083.5655      0.78078890
       4085.5153      0.77438420
       4087.4652      0.77389121
       4089.4150      0.76394558
       4091.3649      0.73531950
       4093.3148      0.72239763
       4095.2646      0.73238933
       4097.2145      0.74347162
       4099.1643      0.74259269
       4101.1142      0.70243096
       4103.0640      0.68476844
       4105.0139      0.69684821
       4106.9638      0.69335419
       4108.9136      0.64153332
       4110.8635      0.64475226
       4112.8133      0.67178422
       4114.7633      0.65974027
       4116.7131      0.66163206
       4118.6630      0.66793245
       4120.6129      0.64065117
       4122.5627      0.60093892
       4124.5126      0.59385842
       4126.4624      0.59995723
       4128.4123      0.59713185
       4130.3621      0.59905571
       4132.3120      0.60289848
       4134.2618      0.59577042
       4136.2117      0.57548857
       4138.1616      0.56056410
       4140.1114      0.55512029
       4142.0613      0.54104656
       4144.0111      0.53151083
       4145.9610      0.53748506
       4147.9108      0.53357494
       4149.8607      0.50526452
       4151.8106      0.49371630
       4153.7604      0.48307675
       4155.7103      0.47354016
       4157.6601      0.46984714
       4159.6100      0.46491569
       4161.5598      0.46787706
       4163.5097      0.44602206
       4165.4597      0.41267192
       4167.4095      0.41657236
       4169.3594      0.41489330
       4171.3092      0.42606488
       4173.2591      0.41123411
       4175.2089      0.41294706
       4177.1588      0.40842491
       4179.1087      0.41801560
       4181.0585      0.43371058
       4183.0084      0.41947484
       4184.9582      0.41359702
       4186.9081      0.41198772
       4188.8579      0.41287529
       4190.8078      0.42709881
       4192.7577      0.43629771
       4194.7075      0.44470352
       4196.6574      0.44016084
       4198.6072      0.43266970
       4200.5571      0.42692137
       4202.5069      0.42350289
       4204.4568      0.43814099
       4206.4066      0.46238944
       4208.3565      0.47285303
       4210.3064      0.47175607
       4212.2562      0.46408582
       4214.2062      0.47364694
       4216.1560      0.47429430
       4218.1059      0.48227757
       4220.0557      0.46996257
       4222.0056      0.47787294
       4223.9555      0.49964619
       4225.9053      0.50760144
       4227.8552      0.49795753
       4229.8050      0.49036628
       4231.7549      0.50383919
       4233.7047      0.53168833
       4235.6546      0.52575874
       4237.6045      0.52386540
       4239.5543      0.50401598
       4241.5042      0.49871656
       4243.4540      0.51716369
       4245.4039      0.53179479
       4247.3537      0.51295531
       4249.3036      0.48953599
       4251.2535      0.48796633
       4253.2033      0.49000257
       4255.1532      0.51661211
       4257.1030      0.51861596
       4259.0529      0.51605141
       4261.0027      0.50803858
       4262.9526      0.48490766
       4264.9026      0.48611200
       4266.8524      0.50868237
       4268.8023      0.50986826
       4270.7521      0.50397348
       4272.7020      0.50323868
       4274.6518      0.49569118
       4276.6017      0.49519110
       4278.5516      0.50366288
       4280.5014      0.51670372
       4282.4513      0.51102638
       4284.4011      0.52212536
       4286.3510      0.51644820
       4288.3008      0.52927220
       4290.2507      0.54989851
       4292.2005      0.52272534
       4294.1504      0.47952393
       4296.1003      0.50362933
       4298.0501      0.52628857
       4300.0000      0.52495551
       4301.9498      0.54016370
       4303.8997      0.53715950
       4305.8495      0.52563769
       4307.7994      0.52290285
       4309.7493      0.52898639
       4311.6991      0.54210627
       4313.6491      0.54511565
       4315.5989      0.52308232
       4317.5488      0.53206408
       4319.4986      0.53033841
       4321.4485      0.54351574
       4323.3984      0.52222872
       4325.3482      0.51538658
       4327.2981      0.54470342
       4329.2479      0.55746830
       4331.1978      0.55616927
       4333.1476      0.55585504
       4335.0975      0.53397089
       4337.0474      0.52330726
       4338.9972      0.56669790
       4340.9471      0.59698433
       4342.8969      0.58499771
       4344.8468      0.57526332
       4346.7966      0.54644710
       4348.7465      0.55654776
       4350.6964      0.58336985
       4352.6462      0.57445747
       4354.5961      0.59030938
       4356.5459      0.59976071
       4358.4958      0.58846688
       4360.4456      0.58606666
       4362.3955      0.59627330
       4364.3455      0.59420621
       4366.2953      0.59021538
       4368.2452      0.59986222
       4370.1950      0.58997315
       4372.1449      0.57827044
       4374.0947      0.58218372
       4376.0446      0.60350746
       4377.9944      0.59264314
       4379.9443      0.57260174
       4381.8942      0.58767796
       4383.8440      0.59240776
       4385.7939      0.57624835
       4387.7437      0.56498367
       4389.6936      0.57892442
       4391.6434      0.57955843
       4393.5933      0.55940443
       4395.5432      0.57817894
       4397.4930      0.58581305
       4399.4429      0.55390769
       4401.3927      0.53027052
       4403.3426      0.54100478
       4405.2924      0.54824042
       4407.2423      0.55138344
       4409.1922      0.55023819
       4411.1420      0.54231936
       4413.0920      0.54784149
       4415.0418      0.54224813
       4416.9917      0.51872814
       4418.9415      0.50800765
       4420.8914      0.51446927
       4422.8413      0.50471997
       4424.7911      0.48292843
       4426.7410      0.49151808
       4428.6908      0.50040352
       4430.6407      0.50070608
       4432.5905      0.49665919
       4434.5404      0.49492893
       4436.4903      0.50298870
       4438.4401      0.51149362
       4440.3900      0.52764559
       4442.3398      0.52277505
       4444.2897      0.50991178
       4446.2395      0.50953740
       4448.1894      0.53330702
       4450.1393      0.53437871
       4452.0891      0.54672122
       4454.0390      0.55132604
       4455.9888      0.56706208
       4457.9387      0.58512986
       4459.8885      0.58328235
       4461.8384      0.58053416
       4463.7883      0.59517545
       4465.7382      0.61178750
       4467.6881      0.61717743
       4469.6379      0.62717617
       4471.5878      0.64656848
       4473.5376      0.63834602
       4475.4875      0.62424809
       4477.4373      0.64719898
       4479.3872      0.68361264
       4481.3371      0.70851207
       4483.2869      0.71191126
       4485.2368      0.70634216
       4487.1866      0.74287665
       4489.1365      0.77728170
       4491.0863      0.76364112
       4493.0362      0.76781678
       4494.9861      0.78426892
       4496.9359      0.78325200
       4498.8858      0.82109994
       4500.8356      0.84096020
       4502.7855      0.86020613
       4504.7353      0.87077361
       4506.6852      0.87436110
       4508.6351      0.89459705
       4510.5849      0.89265394
       4512.5349      0.89366752
       4514.4847      0.92082977
       4516.4346      0.95835149
       4518.3844      0.97937828
       4520.3343      0.96853018
       4522.2842      0.97012329
       4524.2340      0.98802924
       4526.1839       1.0084888
       4528.1337       1.0421991
       4530.0836       1.0575343
       4532.0334       1.0342499
       4533.9833       1.0573381
       4535.9331       1.0972903
       4537.8830       1.0977988
       4539.8329       1.1130354
       4541.7827       1.1600364
       4543.7326       1.1969746
       4545.6824       1.1937704
       4547.6323       1.2140726
       4549.5821       1.2567568
       4551.5320       1.2352326
       4553.4819       1.2204115
       4555.4317       1.2559092
       4557.3816       1.2909459
       4559.3314       1.3326815
       4561.2813       1.3432882
       4563.2312       1.3217430
       4565.1811       1.3069985
       4567.1310       1.3319110
       4569.0808       1.3542229
       4571.0307       1.3865241
       4572.9805       1.4041361
       4574.9304       1.4283136
       4576.8802       1.4425396
       4578.8301       1.4597508
       4580.7800       1.4573306
       4582.7298       1.5072248
       4584.6797       1.5314155
       4586.6295       1.5684482
       4588.5794       1.6071706
       4590.5292       1.6016796
       4592.4791       1.6653879
       4594.4290       1.6517689
       4596.3788       1.6223229
       4598.3287       1.6737988
       4600.2785       1.7220312
       4602.2284       1.6976849
       4604.1782       1.6548308
       4606.1281       1.7142128
       4608.0780       1.7169935
       4610.0278       1.6691744
       4611.9778       1.6712158
       4613.9276       1.6882073
       4615.8775       1.7081747
       4617.8273       1.7094020
       4619.7772       1.6987251
       4621.7270       1.6439916
       4623.6769       1.6474557
       4625.6268       1.6758538
       4627.5766       1.6651281
       4629.5265       1.6908993
       4631.4763       1.7372118
       4633.4262       1.7676576
       4635.3760       1.7360102
       4637.3259       1.7366077
       4639.2758       1.7664008
       4641.2256       1.7581404
       4643.1755       1.7077856
       4645.1253       1.6746814
       4647.0752       1.6944978
       4649.0250       1.7228884
       4650.9749       1.7119838
       4652.9248       1.6979377
       4654.8746       1.6792752
       4656.8245       1.6410369
       4658.7743       1.5975085
       4660.7242       1.5676305
       4662.6741       1.5827408
       4664.6240       1.6082618
       4666.5739       1.5992161
       4668.5237       1.5774560
       4670.4736       1.5542918
       4672.4234       1.5325295
       4674.3733       1.5014544
       4676.3231       1.4708632
       4678.2730       1.4470708
       4680.2229       1.4566782
       4682.1727       1.4476031
       4684.1226       1.4023769
       4686.0724       1.4206811
       4688.0223       1.3933874
       4689.9721       1.3681117
       4691.9220       1.3821989
       4693.8719       1.3306035
       4695.8217       1.2945765
       4697.7716       1.3059967
       4699.7214       1.3042101
       4701.6713       1.3098748
       4703.6211       1.2815585
       4705.5710       1.2205269
       4707.5208       1.1982424
       4709.4707       1.1709718
       4711.4207       1.1266198
       4713.3705       1.1312819
       4715.3204       1.1240057
       4717.2702       1.0928782
       4719.2201       1.1146678
       4721.1699       1.1459658
       4723.1198       1.1371067
       4725.0697       1.1259950
       4727.0195       1.1388749
       4728.9694       1.1308351
       4730.9192       1.1285002
       4732.8691       1.1446640
       4734.8189       1.1351320
       4736.7688       1.1255729
       4738.7187       1.1287171
       4740.6685       1.1114322
       4742.6184       1.1064432
       4744.5682       1.1195273
       4746.5181       1.0999527
       4748.4679       1.0893050
       4750.4178       1.1012818
       4752.3677       1.0724591
       4754.3175       1.0474141
       4756.2674       1.0380801
       4758.2172       1.0347054
       4760.1671       1.0414827
       4762.1170       1.0527719
       4764.0669       1.0619433
       4766.0168       1.0401894
       4767.9666       1.0392950
       4769.9165       1.0433279
       4771.8663       1.0139931
       4773.8162      0.99735606
