Units are: observed wavelength (Ang), observed flux (10^-15 erg/s/cm^2/Ang)
       3322.0000     0.038336383
       3323.9500     0.039694451
       3325.9000     0.054942068
       3327.8500     0.067221704
       3329.8000     0.066689005
       3331.7500     0.056095150
       3333.7000     0.071195389
       3335.6500     0.057263180
       3337.6000     0.056892011
       3339.5500     0.079684986
       3341.5000     0.087975501
       3343.4500     0.062057646
       3345.4000     0.030131854
       3347.3500     0.048806387
       3349.3000     0.055714892
       3351.2500     0.080126944
       3353.2000     0.060523425
       3355.1500     0.037012762
       3357.1000     0.016374482
       3359.0501     0.033921759
       3361.0000     0.057201066
       3362.9500     0.049982371
       3364.9000     0.049690252
       3366.8500     0.057383098
       3368.8000     0.079598876
       3370.7500      0.10494595
       3372.7000     0.060111200
       3374.6500     0.057808302
       3376.6000     0.068700180
       3378.5500     0.068216398
       3380.5000     0.049843946
       3382.4500     0.073677611
       3384.4000     0.071308764
       3386.3500     0.046274589
       3388.3000     0.079621846
       3390.2500     0.061227093
       3392.2000     0.051416401
       3394.1500     0.066896858
       3396.1000     0.057025387
       3398.0500     0.044040604
       3400.0000     0.057088193
       3401.9500     0.063325705
       3403.9000     0.072791333
       3405.8500     0.076552558
       3407.8000     0.052467919
       3409.7500     0.074581567
       3411.7000     0.089948635
       3413.6500     0.060449895
       3415.6000     0.039070904
       3417.5500     0.052518294
       3419.5000     0.078490111
       3421.4500     0.064674716
       3423.4000     0.074053847
       3425.3500     0.080843565
       3427.3000     0.079120795
       3429.2500     0.074162046
       3431.2000     0.069709742
       3433.1500     0.082228744
       3435.1000     0.062686286
       3437.0500     0.073534438
       3439.0000     0.085036880
       3440.9500     0.081856729
       3442.9000     0.085615041
       3444.8500     0.067889226
       3446.8000     0.060934862
       3448.7500     0.078109949
       3450.7000     0.073878354
       3452.6500     0.054514696
       3454.6000     0.078414407
       3456.5500     0.064423857
       3458.5000     0.065156607
       3460.4500     0.093771664
       3462.4000     0.083167893
       3464.3499     0.080217730
       3466.3000     0.087566466
       3468.2500     0.067417234
       3470.2000     0.064290623
       3472.1500     0.073104744
       3474.1000     0.064061325
       3476.0500     0.073136620
       3478.0000     0.071214785
       3479.9500     0.061751426
       3481.9000     0.072073754
       3483.8500     0.078308642
       3485.8000     0.064716765
       3487.7500     0.083955561
       3489.7000     0.091559242
       3491.6500     0.067001909
       3493.6000     0.056477077
       3495.5500     0.063963567
       3497.5000     0.081318717
       3499.4500     0.047545149
       3501.4000     0.064511515
       3503.3500     0.073683680
       3505.3000     0.075049320
       3507.2500     0.062472990
       3509.2000     0.051637942
       3511.1500     0.060235349
       3513.1000     0.041790899
       3515.0500     0.044124178
       3517.0000     0.055762667
       3518.9500     0.047908879
       3520.9000     0.058888322
       3522.8500     0.064899489
       3524.8000     0.050542729
       3526.7500     0.042131181
       3528.7000     0.069944353
       3530.6500     0.077591449
       3532.6000     0.065468741
       3534.5500     0.067602443
       3536.5000     0.053588210
       3538.4500     0.045243629
       3540.4000     0.070853778
       3542.3500     0.080687034
       3544.3000     0.067917910
       3546.2500     0.067006776
       3548.2000     0.082828540
       3550.1500     0.074107564
       3552.1000     0.039549086
       3554.0500     0.061377493
       3556.0000     0.068238408
       3557.9500     0.060624461
       3559.9000     0.070183153
       3561.8500     0.089070509
       3563.8000     0.072199792
       3565.7500     0.076911016
       3567.7000     0.095824526
       3569.6500      0.10036746
       3571.6000     0.093501287
       3573.5500     0.094245623
       3575.5000      0.10208877
       3577.4500     0.093122000
       3579.4000     0.074028135
       3581.3500     0.086705213
       3583.3000     0.096565007
       3585.2500     0.089571872
       3587.2000     0.066250731
       3589.1500     0.077236472
       3591.1000     0.092850318
       3593.0500     0.093230175
       3595.0000     0.090296657
       3596.9500     0.075645607
       3598.9000     0.073794504
       3600.8500     0.091927954
       3602.8000     0.091357571
       3604.7500     0.092932310
       3606.7000     0.089880235
       3608.6500     0.084997182
       3610.6000     0.099358765
       3612.5500     0.092065113
       3614.5000     0.080135130
       3616.4500     0.090005386
       3618.4000     0.094431384
       3620.3500     0.073669734
       3622.3000     0.051514254
       3624.2500     0.068602052
       3626.2000     0.079853043
       3628.1500     0.085497928
       3630.1000     0.081096318
       3632.0500     0.086853495
       3634.0000     0.084479899
       3635.9500     0.061916470
       3637.9000     0.056789854
       3639.8500     0.067112535
       3641.8000     0.064959563
       3643.7500     0.066179182
       3645.7000     0.073387894
       3647.6500     0.077401368
       3649.6000     0.085951035
       3651.5500     0.091861469
       3653.5000     0.082191403
       3655.4500     0.066151025
       3657.4000     0.063798803
       3659.3500     0.066600114
       3661.3000     0.074370366
       3663.2500     0.077139874
       3665.2000     0.076151868
       3667.1500     0.079844570
       3669.1000     0.080100635
       3671.0500     0.084886498
       3673.0000     0.087704153
       3674.9500     0.076990948
       3676.9000     0.074206562
       3678.8500     0.090165983
       3680.8000     0.093784077
       3682.7500     0.081155709
       3684.7000     0.081305734
       3686.6500     0.087151907
       3688.6000     0.089389222
       3690.5500     0.092449739
       3692.5000     0.091755907
       3694.4500     0.091986572
       3696.4000      0.10950533
       3698.3500      0.12001920
       3700.3000      0.11639310
       3702.2500      0.11317457
       3704.2000      0.11370266
       3706.1500      0.11234757
       3708.1000      0.10275018
       3710.0500      0.10768276
       3712.0000      0.10856048
       3713.9500      0.10608925
       3715.9000      0.11335102
       3717.8500      0.11896671
       3719.8000      0.11484022
       3721.7500      0.10514152
       3723.7000      0.11429663
       3725.6500      0.12953833
       3727.6000      0.10843687
       3729.5500     0.093306626
       3731.5000      0.10684747
       3733.4500      0.10801103
       3735.4000      0.10808893
       3737.3500      0.12043848
       3739.3000      0.13332989
       3741.2500      0.13895305
       3743.2000      0.15362258
       3745.1500      0.16578823
       3747.1000      0.16363129
       3749.0500      0.15625874
       3751.0000      0.13649496
       3752.9500      0.11835921
       3754.9000      0.10293176
       3756.8500      0.10091762
       3758.8000      0.10773102
       3760.7500      0.10432093
       3762.7000      0.10151197
       3764.6500     0.095671035
       3766.6000     0.086211685
       3768.5500     0.088126524
       3770.5000     0.096981469
       3772.4500     0.096580466
       3774.4000     0.098123687
       3776.3500     0.094536787
       3778.3000     0.093923757
       3780.2500     0.087737445
       3782.2000     0.073553337
       3784.1500     0.079181463
       3786.1000     0.080153191
       3788.0500     0.073265106
       3790.0000     0.072567926
       3791.9500     0.068020178
       3793.9000     0.072865036
       3795.8500     0.073713186
       3797.8000     0.060561791
       3799.7500     0.053296103
       3801.7000     0.063072795
       3803.6500     0.063775507
       3805.6000     0.056959948
       3807.5500     0.060024359
       3809.5000     0.059496083
       3811.4500     0.055638600
       3813.4000     0.053764232
       3815.3500     0.051044737
       3817.3000     0.047394007
       3819.2500     0.054510818
       3821.2000     0.053470564
       3823.1500     0.050510391
       3825.1000     0.061172726
       3827.0500     0.049443597
       3829.0000     0.033895286
       3830.9500     0.040359796
       3832.9000     0.042060412
       3834.8500     0.047789232
       3836.8000     0.043235308
       3838.7500     0.027222990
       3840.7000     0.033195110
       3842.6500     0.038791398
       3844.6000     0.038381239
       3846.5500     0.035182559
       3848.5000     0.029699973
       3850.4500     0.033261846
       3852.4000     0.042411693
       3854.3500     0.039879002
       3856.3000     0.037107510
       3858.2500     0.040644229
       3860.2000     0.034345047
       3862.1500     0.033039971
       3864.1000     0.038937840
       3866.0500     0.043523774
       3868.0000     0.042967444
       3869.9500     0.037275683
       3871.9000     0.036567982
       3873.8500     0.041936826
       3875.8000     0.055291172
       3877.7500     0.056382670
       3879.7000     0.050567828
       3881.6500     0.058337136
       3883.6000     0.061866293
       3885.5500     0.057698393
       3887.5000     0.070213547
       3889.4500     0.076904778
       3891.4000     0.063109027
       3893.3500     0.065146550
       3895.3000     0.081716979
       3897.2500     0.085480028
       3899.2000     0.084306676
       3901.1500     0.089740588
       3903.1000     0.096905307
       3905.0500      0.10360155
       3907.0000      0.10912722
       3908.9500      0.11429698
       3910.9000      0.10275533
       3912.8500      0.10990871
       3914.8000      0.12650620
       3916.7500      0.12495511
       3918.7000      0.12638746
       3920.6500      0.14640993
       3922.6000      0.15673105
       3924.5500      0.14970852
       3926.5000      0.15395290
       3928.4500      0.16598104
       3930.4000      0.18390343
       3932.3500      0.18233103
       3934.3000      0.17039821
       3936.2500      0.17456219
       3938.2000      0.19694659
       3940.1500      0.20447406
       3942.1000      0.19988910
       3944.0500      0.20095625
       3946.0000      0.20866327
       3947.9500      0.19077897
       3949.9000      0.20964549
       3951.8500      0.21233069
       3953.8000      0.20629293
       3955.7500      0.21974520
       3957.7000      0.22316134
       3959.6500      0.20405370
       3961.6000      0.21339072
       3963.5500      0.22256768
       3965.5000      0.21444556
       3967.4500      0.21170973
       3969.4000      0.22309257
       3971.3500      0.22468163
       3973.3000      0.22337449
       3975.2500      0.22662443
       3977.2000      0.22834516
       3979.1500      0.21898888
       3981.1000      0.22126381
       3983.0500      0.22981989
       3985.0000      0.22134899
       3986.9500      0.22024621
       3988.9000      0.22541063
       3990.8500      0.25002328
       3992.8000      0.24946513
       3994.7500      0.25002140
       3996.7000      0.25214206
       3998.6500      0.24014502
       4000.6000      0.24075567
       4002.5500      0.23674024
       4004.5000      0.24755714
       4006.4500      0.25716975
       4008.4000      0.24636698
       4010.3500      0.25577545
       4012.3000      0.25937669
       4014.2500      0.26442955
       4016.2000      0.25557275
       4018.1500      0.24973280
       4020.1000      0.25292700
       4022.0500      0.25738008
       4024.0000      0.25986526
       4025.9500      0.26719672
       4027.9000      0.25139463
       4029.8500      0.24895278
       4031.8000      0.27220521
       4033.7500      0.26246747
       4035.7000      0.25705910
       4037.6500      0.25335217
       4039.6000      0.25811098
       4041.5500      0.25150886
       4043.5000      0.25729855
       4045.4500      0.26609798
       4047.4000      0.26824652
       4049.3500      0.25947074
       4051.3000      0.26721523
       4053.2500      0.26587364
       4055.2000      0.26066760
       4057.1500      0.27579808
       4059.1000      0.28637185
       4061.0500      0.26926342
       4063.0000      0.25818514
       4064.9500      0.26293589
       4066.9000      0.27795747
       4068.8500      0.28190532
       4070.8000      0.27039400
       4072.7500      0.26366376
       4074.7000      0.26098637
       4076.6500      0.25751624
       4078.6000      0.25426100
       4080.5500      0.23789589
       4082.5000      0.24126675
       4084.4500      0.23890476
       4086.4000      0.23098787
       4088.3500      0.23670102
       4090.3000      0.23406629
       4092.2500      0.21541900
       4094.2000      0.20890883
       4096.1500      0.20346976
       4098.1000      0.19895529
       4100.0500      0.21110265
       4102.0000      0.20430155
       4103.9500      0.19050745
       4105.9000      0.20973808
       4107.8500      0.20781181
       4109.8000      0.18202889
       4111.7500      0.18668403
       4113.7000      0.19183153
       4115.6500      0.18733883
       4117.6000      0.18240575
       4119.5500      0.17796818
       4121.5000      0.18510241
       4123.4500      0.17409952
       4125.4000      0.16822940
       4127.3500      0.15661861
       4129.3000      0.16458180
       4131.2500      0.17042017
       4133.2000      0.18228466
       4135.1500      0.18205138
       4137.1000      0.16344995
       4139.0500      0.16973200
       4141.0000      0.16485095
       4142.9500      0.16321841
       4144.9000      0.16003689
       4146.8500      0.17282781
       4148.8000      0.18321160
       4150.7500      0.17682321
       4152.7000      0.19791934
       4154.6500      0.20395970
       4156.6000      0.17631619
       4158.5500      0.17379826
       4160.5000      0.17643688
       4162.4500      0.19404502
       4164.4000      0.18308299
       4166.3500      0.18595311
       4168.3000      0.17294350
       4170.2500      0.17451959
       4172.2000      0.17571951
       4174.1500      0.18770203
       4176.1000      0.17598843
       4178.0500      0.15904941
       4180.0000      0.14554177
       4181.9500      0.15889263
       4183.9000      0.15710318
       4185.8500      0.15180953
       4187.8000      0.15197147
       4189.7500      0.13005946
       4191.7000      0.13422974
       4193.6500      0.15979849
       4195.6000      0.14648142
       4197.5500      0.15003354
       4199.5000      0.14233872
       4201.4500      0.15326685
       4203.4000      0.15704166
       4205.3500      0.16648118
       4207.3000      0.16932980
       4209.2500      0.15445513
       4211.2000      0.15884530
       4213.1500      0.17163203
       4215.1000      0.17210360
       4217.0500      0.16719206
       4219.0000      0.15993236
       4220.9500      0.16972266
       4222.9000      0.17972365
       4224.8500      0.17336099
       4226.8000      0.17520672
       4228.7500      0.19776290
       4230.7000      0.18771246
       4232.6500      0.18836118
       4234.6000      0.18843128
       4236.5500      0.18613181
       4238.5000      0.19120389
       4240.4500      0.19487795
       4242.4000      0.17966531
       4244.3500      0.19103777
       4246.3000      0.19515439
       4248.2500      0.18769922
       4250.2000      0.19858240
       4252.1500      0.17703844
       4254.1000      0.18452150
       4256.0500      0.18504592
       4258.0000      0.19441505
       4259.9500      0.20020142
       4261.9000      0.19232441
       4263.8500      0.21084541
       4265.8000      0.20931829
       4267.7500      0.19793209
       4269.7000      0.19262958
       4271.6500      0.20364522
       4273.6000      0.21597018
       4275.5500      0.21250283
       4277.5000      0.21114623
       4279.4500      0.22865598
       4281.4000      0.24152618
       4283.3500      0.23933282
       4285.3000      0.24095205
       4287.2500      0.23408374
       4289.2000      0.23718258
       4291.1500      0.22553656
       4293.1001      0.22913781
       4295.0500      0.24443100
       4297.0000      0.22952391
       4298.9500      0.23852476
       4300.9000      0.23975631
       4302.8500      0.23059654
       4304.8000      0.23629657
       4306.7500      0.24957607
       4308.7000      0.24152278
       4310.6500      0.23921269
       4312.6000      0.24321209
       4314.5500      0.24638834
       4316.5000      0.23727058
       4318.4500      0.24270259
       4320.4000      0.24186307
       4322.3500      0.24283998
       4324.3000      0.24595225
       4326.2500      0.24649396
       4328.2000      0.26305589
       4330.1500      0.24419661
       4332.1000      0.22645778
       4334.0500      0.23645832
       4336.0000      0.23695219
       4337.9500      0.23970938
       4339.9000      0.23312320
       4341.8500      0.23152527
       4343.8000      0.23434398
       4345.7500      0.24043607
       4347.7000      0.22855883
       4349.6500      0.23046047
       4351.6000      0.22947616
       4353.5500      0.21414771
       4355.5000      0.24260406
       4357.4500      0.26292243
       4359.4000      0.27209031
       4361.3500      0.26681929
       4363.3000      0.24632220
       4365.2500      0.23495918
       4367.2000      0.24385995
       4369.1500      0.25019079
       4371.1000      0.24797015
       4373.0500      0.25396012
       4375.0000      0.23782817
       4376.9500      0.23951358
       4378.9000      0.27351080
       4380.8500      0.26328348
       4382.8000      0.25751907
       4384.7500      0.25110008
       4386.7000      0.25787761
       4388.6500      0.24974497
       4390.6000      0.26138441
       4392.5500      0.26056553
       4394.5000      0.24422949
       4396.4500      0.25695438
       4398.3999      0.27163914
       4400.3500      0.25893925
       4402.3000      0.24393287
       4404.2500      0.25280372
       4406.2000      0.27054198
       4408.1500      0.27664704
       4410.1000      0.25181093
       4412.0500      0.25597997
       4414.0000      0.26074116
       4415.9500      0.26069205
       4417.9000      0.26872226
       4419.8500      0.26221760
       4421.8000      0.26288403
       4423.7500      0.27061690
       4425.7000      0.25969417
       4427.6500      0.26731622
       4429.6000      0.25532396
       4431.5500      0.23658258
       4433.5000      0.23981659
       4435.4500      0.25466882
       4437.4000      0.25999473
       4439.3500      0.24248686
       4441.3000      0.23921382
       4443.2500      0.24404715
       4445.2000      0.23775744
       4447.1500      0.24179842
       4449.1000      0.25036612
       4451.0500      0.23655786
       4453.0000      0.23521424
       4454.9500      0.21988878
       4456.9000      0.22365715
       4458.8500      0.23105171
       4460.8000      0.22862305
       4462.7500      0.23226195
       4464.7000      0.23310481
       4466.6500      0.24321348
       4468.6000      0.23361810
       4470.5500      0.23048818
       4472.5000      0.23086142
       4474.4500      0.24429150
       4476.4000      0.24879095
       4478.3500      0.24533638
       4480.3000      0.22615976
       4482.2500      0.22721117
       4484.2000      0.22350957
       4486.1500      0.23871692
       4488.1000      0.23548118
       4490.0500      0.23059690
       4492.0000      0.23769026
       4493.9500      0.24497101
       4495.9000      0.24902406
