Units are: observed wavelength (Ang), observed flux (10^-15 erg/s/cm^2/Ang)
       3473.0000      0.38819140
       3474.4700       1.0080560
       3475.9400     -0.12663880
       3477.4100     -0.44370000
       3478.8800      0.23537720
       3480.3500      0.38078330
       3481.8200      0.22955570
       3483.2900   -0.0017648400
       3484.7600     -0.14769800
       3486.2300     -0.12380920
       3487.7000      0.35775550
       3489.1700      0.39972270
       3490.6400      0.26255370
       3492.1100    -0.077198580
       3493.5800     0.052542750
       3495.0500      0.39634320
       3496.5200      0.89923560
       3497.9900      0.65790080
       3499.4600     -0.23980210
       3500.9300     -0.19345840
       3502.4000      0.19521780
       3503.8700   -0.0048311560
       3505.3400     -0.11850800
       3506.8100    -0.095606220
       3508.2800     -0.40000240
       3509.7500      0.17450500
       3511.2200      0.84004010
       3512.6900    0.0016861030
       3514.1600     -0.35937260
       3515.6300      0.20916210
       3517.1000      0.31355790
       3518.5700     0.052658600
       3520.0400    0.0055540490
       3521.5100      0.10509760
       3522.9800      0.88644160
       3524.4500       1.4414980
       3525.9200      0.66220930
       3527.3900    -0.070966970
       3528.8600     0.014936550
       3530.3300      0.18245650
       3531.8000      0.67537020
       3533.2700      0.76342110
       3534.7400      0.26692440
       3536.2100     -0.31689070
       3537.6800     -0.14444940
       3539.1500      0.13281210
       3540.6200     0.045756280
       3542.0900    -0.023671690
       3543.5600     -0.45460120
       3545.0300     -0.54963770
       3546.5000     -0.26230540
       3547.9700   -0.0046502820
       3549.4400     -0.17719130
       3550.9100     -0.47163980
       3552.3800     -0.13395080
       3553.8500    -0.017139410
       3555.3200     -0.18675910
       3556.7900     -0.39444750
       3558.2600     0.082978850
       3559.7300      0.29161930
       3561.2000     0.070289670
       3562.6700     -0.17150900
       3564.1400     -0.21495110
       3565.6100     0.034574510
       3567.0800     0.067150830
       3568.5500      0.23990040
       3570.0200      0.20583670
       3571.4900    -0.032738600
       3572.9600    -0.020842160
       3574.4300      0.20503190
       3575.9000      0.45118890
       3577.3700     0.082750940
       3578.8400    -0.026162130
       3580.3100     0.093747470
       3581.7800     0.033857910
       3583.2500   -0.0071616770
       3584.7200      0.15865220
       3586.1900     0.042778080
       3587.6600     -0.18709280
       3589.1300    -0.032800980
       3590.6000     0.010920920
       3592.0700    -0.037399280
       3593.5400     0.021055660
       3595.0100      0.11515330
       3596.4800      0.11327070
       3597.9500      0.42140120
       3599.4200       1.0137890
       3600.8900      0.65491000
       3602.3600      0.17064860
       3603.8300     0.021173640
       3605.3000     -0.18301490
       3606.7700     -0.10913830
       3608.2400    -0.054452450
       3609.7100      0.19801200
       3611.1800       1.0263130
       3612.6500       1.1384990
       3614.1200      0.19829850
       3615.5900     -0.18773700
       3617.0600    -0.016977840
       3618.5300     0.027748830
       3620.0000    0.0078682050
       3621.4700    -0.022033970
       3622.9400      0.21946590
       3624.4100      0.30057330
       3625.8800     0.034135110
       3627.3500    -0.033522700
       3628.8200      0.15878350
       3630.2900      0.44235480
       3631.7600      0.21917310
       3633.2300    -0.077186010
       3634.7000     0.054719590
       3636.1700      0.18515260
       3637.6400    -0.079669090
       3639.1100     -0.26802570
       3640.5800    -0.020535530
       3642.0500       1.2191010
       3643.5200       1.4040320
       3644.9900      0.24853480
       3646.4600      0.39316650
       3647.9300       1.0724750
       3649.4000      0.58925160
       3650.8700     -0.14164940
       3652.3400     -0.11712940
       3653.8100    -0.061437480
       3655.2800     -0.16052760
       3656.7500     0.052313500
       3658.2200      0.27738980
       3659.6900     0.095979590
       3661.1600     -0.12447670
       3662.6300     -0.11661770
       3664.1000     0.036068700
       3665.5700     0.017354210
       3667.0400     0.055516420
       3668.5100      0.21813060
       3669.9800      0.16710240
       3671.4500     0.084367420
       3672.9200      0.24244720
       3674.3900      0.19606470
       3675.8600      0.12356460
       3677.3300      0.51442490
       3678.8000      0.46531500
       3680.2700      0.43392710
       3681.7400      0.43839500
       3683.2100      0.13001720
       3684.6800      0.14875110
       3686.1500      0.23519030
       3687.6200      0.22986250
       3689.0900      0.10430620
       3690.5600     0.013770010
       3692.0300      0.10153780
       3693.5000     0.046830310
       3694.9700     0.033442830
       3696.4400      0.16187580
       3697.9100      0.50228580
       3699.3800       1.1294830
       3700.8500      0.59784820
       3702.3200     -0.20716440
       3703.7900     -0.18206530
       3705.2600    -0.056366700
       3706.7300     0.041788990
       3708.2000    -0.050969350
       3709.6700     0.030852350
       3711.1400     0.069320200
       3712.6100    -0.012806630
       3714.0800    -0.013671630
       3715.5500      0.14141390
       3717.0200      0.29168530
       3718.4900      0.61176260
       3719.9600      0.71164170
       3721.4300      0.12560460
       3722.9000    -0.053819470
       3724.3700     0.054781520
       3725.8400     0.050519440
       3727.3100      0.11902990
       3728.7800      0.20139410
       3730.2500      0.25742540
       3731.7200      0.23327230
       3733.1900      0.12082500
       3734.6600     0.067899890
       3736.1300  -0.00035220200
       3737.6000     -0.20384960
       3739.0700     -0.21892430
       3740.5400     0.054197300
       3742.0100      0.44803840
       3743.4800      0.46601260
       3744.9501      0.12581690
       3746.4200     0.012606420
       3747.8900    -0.017387460
       3749.3600     -0.10063770
       3750.8300     0.045298830
       3752.3000      0.19530330
       3753.7700      0.14043170
       3755.2400    0.0083382080
       3756.7100      0.12895760
       3758.1800      0.32588490
       3759.6500      0.18033070
       3761.1200    0.0053594620
       3762.5900     0.095988340
       3764.0600      0.41029850
       3765.5300      0.38930450
       3767.0000      0.16423560
       3768.4700      0.19806600
       3769.9400      0.26476320
       3771.4100      0.25307490
       3772.8800      0.19993860
       3774.3500      0.19827640
       3775.8200      0.22553710
       3777.2900      0.10455280
       3778.7600      0.13311370
       3780.2300      0.27601460
       3781.7000      0.14459420
       3783.1700      0.17902950
       3784.6400      0.21858660
       3786.1100     0.066882180
       3787.5800     0.093597570
       3789.0500      0.17444790
       3790.5200      0.19569190
       3791.9900      0.15793080
       3793.4600     0.062186050
       3794.9300     0.074617180
       3796.4000      0.16230120
       3797.8700      0.16380760
       3799.3400      0.15140860
       3800.8100      0.13775470
       3802.2800      0.17573830
       3803.7500      0.44552850
       3805.2200      0.87673840
       3806.6900      0.72307350
       3808.1600      0.29601920
       3809.6300      0.22645760
       3811.1000     0.097272440
       3812.5700     0.040877680
       3814.0400     0.090307720
       3815.5100      0.16536290
       3816.9800     0.050274270
       3818.4500    -0.040960100
       3819.9200    -0.046937830
       3821.3900     -0.10205060
       3822.8600     0.016164150
       3824.3300      0.17715810
       3825.8000     0.074478810
       3827.2700     0.058664300
       3828.7400      0.23614480
       3830.2100      0.23621890
       3831.6800      0.32397210
       3833.1500      0.44301100
       3834.6200      0.13301370
       3836.0900      0.10002940
       3837.5600      0.26442000
       3839.0300      0.15571400
       3840.5000     0.094992650
       3841.9700      0.12054650
       3843.4400      0.25966920
       3844.9100      0.28295320
       3846.3800     0.026677110
       3847.8500    -0.022313710
       3849.3200     0.053810850
       3850.7900     0.070303680
       3852.2600      0.11714050
       3853.7300      0.23509070
       3855.2000      0.28340750
       3856.6700      0.26577710
       3858.1400      0.15768780
       3859.6100      0.10298950
       3861.0800      0.23652670
       3862.5500      0.20304140
       3864.0200   -0.0063444740
       3865.4900     0.071478230
       3866.9600      0.18658770
       3868.4300      0.11994430
       3869.9000      0.19404130
       3871.3700      0.18673940
       3872.8400      0.19560310
       3874.3100      0.29166830
       3875.7800      0.13284570
       3877.2500     0.047357660
       3878.7200      0.14639650
       3880.1900      0.34579320
       3881.6600      0.33981170
       3883.1300      0.31497350
       3884.6000      0.33954910
       3886.0700      0.29725600
       3887.5400      0.27213990
       3889.0100      0.19147710
       3890.4800      0.15763800
       3891.9500      0.18124150
       3893.4200      0.20116000
       3894.8900      0.12779220
       3896.3600      0.20069420
       3897.8300      0.47681060
       3899.3000      0.47339940
       3900.7700      0.19756930
       3902.2400      0.24560900
       3903.7100      0.21816030
       3905.1800      0.35207290
       3906.6500      0.51021700
       3908.1200      0.37666250
       3909.5900      0.22086090
       3911.0600      0.25070230
       3912.5300      0.31022340
       3914.0000      0.29463630
       3915.4700      0.28669660
       3916.9400      0.40880450
       3918.4100      0.50931470
       3919.8800      0.36696640
       3921.3500      0.27113540
       3922.8200      0.30721560
       3924.2900      0.37598060
       3925.7600      0.41209740
       3927.2300      0.29214140
       3928.7000      0.27189820
       3930.1700      0.56919240
       3931.6400      0.48033270
       3933.1100      0.20304490
       3934.5800      0.31049290
       3936.0500      0.55032100
       3937.5200      0.48294890
       3938.9900      0.38914910
       3940.4600      0.38244570
       3941.9300      0.41893850
       3943.4000      0.61912660
       3944.8700      0.62755270
       3946.3400      0.44286570
       3947.8100      0.54857570
       3949.2800      0.49558370
       3950.7500      0.36174240
       3952.2200      0.47488500
       3953.6900      0.46176060
       3955.1600      0.35666560
       3956.6300      0.34817910
       3958.1000      0.38296060
       3959.5700      0.53039800
       3961.0400      0.54856880
       3962.5100      0.47737160
       3963.9800      0.49605000
       3965.4500      0.39372900
       3966.9200      0.31642540
       3968.3900      0.43084460
       3969.8600      0.51899450
       3971.3300      0.46102510
       3972.8000      0.46429870
       3974.2700      0.38460920
       3975.7400      0.39655500
       3977.2100      0.53722130
       3978.6800      0.54801520
       3980.1500      0.44880590
       3981.6200      0.50248070
       3983.0900      0.52895420
       3984.5600      0.39351500
       3986.0300      0.44217510
       3987.5000      0.50442380
       3988.9700      0.46028500
       3990.4400      0.53420080
       3991.9100      0.41778750
       3993.3800      0.29045170
       3994.8500      0.43152500
       3996.3200      0.62580550
       3997.7900      0.47891180
       3999.2600      0.37802300
       4000.7300      0.34481130
       4002.2000      0.37361780
       4003.6700      0.53590180
       4005.1400      0.51185870
       4006.6100      0.58782830
       4008.0800      0.67288150
       4009.5500      0.44869710
       4011.0200      0.36098470
       4012.4900      0.45632860
       4013.9600      0.66531050
       4015.4300      0.63394020
       4016.9000      0.53755110
       4018.3700      0.57145270
       4019.8400      0.62027830
       4021.3100      0.57311990
       4022.7800      0.41772960
       4024.2500      0.51850810
       4025.7200      0.58347770
       4027.1900      0.45833290
       4028.6600      0.41620260
       4030.1300      0.53465630
       4031.6000      0.56550750
       4033.0700      0.52706200
       4034.5400      0.56586970
       4036.0100      0.45310840
       4037.4800      0.44343790
       4038.9500      0.43247830
       4040.4200      0.44149280
       4041.8900      0.44713170
       4043.3600      0.48891710
       4044.8300      0.52457950
       4046.3000      0.39054520
       4047.7700      0.47021760
       4049.2400      0.61778280
       4050.7100      0.67892360
       4052.1800      0.51854850
       4053.6500      0.47101110
       4055.1200      0.47386450
       4056.5900      0.49039350
       4058.0601      0.39532410
       4059.5300      0.36442030
       4061.0000      0.42134590
       4062.4700      0.39959240
       4063.9400      0.37584570
       4065.4100      0.48651830
       4066.8800      0.47283730
       4068.3500      0.34763900
       4069.8200      0.35723210
       4071.2900      0.49909570
       4072.7600      0.63252220
       4074.2300      0.49648570
       4075.7000      0.33244790
       4077.1700      0.41393380
       4078.6400      0.41656540
       4080.1100      0.26667960
       4081.5800      0.33635440
       4083.0500      0.42871610
       4084.5200      0.39316260
       4085.9900      0.42345630
       4087.4600      0.37467120
       4088.9300      0.28638060
       4090.4000      0.37247160
       4091.8700      0.33025290
       4093.3400      0.28516870
       4094.8100      0.32311950
       4096.2800      0.28399910
       4097.7500      0.39560740
       4099.2200      0.50977130
       4100.6900      0.46611500
       4102.1600      0.33346880
       4103.6300      0.30532400
       4105.1000      0.28879900
       4106.5700      0.23672740
       4108.0400      0.32504820
       4109.5100      0.45251330
       4110.9800      0.41285040
       4112.4500      0.36026350
       4113.9200      0.39968560
       4115.3900      0.29435810
       4116.8600      0.21057360
       4118.3300      0.31924780
       4119.8000      0.29315260
       4121.2700      0.22574710
       4122.7400      0.25682910
       4124.2100      0.25922840
       4125.6800      0.31278090
       4127.1500      0.33401570
       4128.6200      0.33128880
       4130.0900      0.37601230
       4131.5600      0.41546770
       4133.0300      0.39215340
       4134.5000      0.28217750
       4135.9700      0.28677640
       4137.4400      0.31720130
       4138.9100      0.32955830
       4140.3800      0.34119950
       4141.8500      0.32613970
       4143.3200      0.31112050
       4144.7900      0.36598520
       4146.2600      0.39055220
       4147.7300      0.38124560
       4149.2000      0.25350100
       4150.6700      0.32980180
       4152.1400      0.35039970
       4153.6100      0.30632850
       4155.0800      0.25814530
       4156.5500      0.26003790
       4158.0200      0.29159980
       4159.4900      0.28117860
       4160.9600      0.23496140
       4162.4300      0.20740770
       4163.9000      0.18923430
       4165.3700      0.23997900
       4166.8400      0.28906480
       4168.3100      0.29734790
       4169.7800      0.31382810
       4171.2500      0.33744890
       4172.7200      0.25785040
       4174.1900      0.23642680
       4175.6600      0.27828910
       4177.1300      0.23543930
       4178.6000      0.23600650
       4180.0700      0.24263600
       4181.5400      0.25283290
       4183.0100      0.25049100
       4184.4800      0.25562990
       4185.9500      0.28268720
       4187.4200      0.26531410
       4188.8900      0.26251920
       4190.3600      0.28030070
       4191.8300      0.24324750
       4193.3000      0.29591130
       4194.7700      0.27172920
       4196.2400      0.25682740
       4197.7100      0.22600230
       4199.1800      0.28581650
       4200.6500      0.20191260
       4202.1200      0.18056470
       4203.5900      0.27249520
       4205.0600      0.23472640
       4206.5300      0.29709370
       4208.0000      0.29059830
       4209.4700      0.23418610
       4210.9400      0.22593870
       4212.4100      0.25163450
       4213.8800      0.27614900
       4215.3500      0.29636130
       4216.8200      0.30355830
       4218.2900      0.26382640
       4219.7600      0.27559450
       4221.2300      0.28337910
       4222.7000      0.30337930
       4224.1700      0.26145790
       4225.6400      0.24777690
       4227.1100      0.22026620
       4228.5800      0.26117530
       4230.0500      0.25113710
       4231.5200      0.28348960
       4232.9900      0.20774400
       4234.4600      0.20474990
       4235.9300      0.24252470
       4237.4000      0.24909780
       4238.8700      0.32406010
       4240.3400      0.33909880
       4241.8100      0.26066880
       4243.2800      0.24991020
       4244.7500      0.26063020
       4246.2200      0.26420940
       4247.6900      0.17115820
       4249.1600      0.18890620
       4250.6300      0.27831770
       4252.1000      0.25900650
       4253.5700      0.26324010
       4255.0400      0.30415080
       4256.5100      0.30949090
       4257.9800      0.34567990
       4259.4500      0.30370860
       4260.9200      0.26354130
       4262.3900      0.27266110
       4263.8600      0.30289400
       4265.3300      0.28633120
       4266.8000      0.29988360
       4268.2700      0.32519990
       4269.7400      0.27816760
       4271.2100      0.27893730
       4272.6800      0.29356380
       4274.1500      0.27474030
       4275.6200      0.24585530
       4277.0900      0.27080750
       4278.5600      0.32209600
       4280.0300      0.31803890
       4281.5000      0.32223870
       4282.9700      0.30785030
       4284.4400      0.27861290
       4285.9100      0.29811940
       4287.3800      0.28841800
       4288.8500      0.25768540
       4290.3200      0.29043280
       4291.7900      0.33952920
       4293.2600      0.32224290
       4294.7300      0.27678030
       4296.2000      0.27694430
       4297.6700      0.26916670
       4299.1400      0.28337610
       4300.6100      0.33306800
       4302.0800      0.29066080
       4303.5500      0.25433200
       4305.0200      0.27069410
       4306.4900      0.27918460
       4307.9600      0.27504350
       4309.4300      0.28202580
       4310.9000      0.28873570
       4312.3700      0.25582110
       4313.8400      0.20733240
       4315.3100      0.21482210
       4316.7800      0.23414680
       4318.2500      0.32775000
       4319.7200      0.31504150
       4321.1900      0.24819310
       4322.6600      0.26449530
       4324.1300      0.28412090
       4325.6000      0.26926610
       4327.0700      0.27182740
       4328.5400      0.26262830
       4330.0100      0.22122130
       4331.4800      0.30403310
       4332.9500      0.31449850
       4334.4200      0.31057830
       4335.8900      0.28366650
       4337.3600      0.29253270
       4338.8300      0.23655500
       4340.3000      0.26494920
       4341.7700      0.26353130
       4343.2400      0.25607420
       4344.7100      0.27958920
       4346.1800      0.28762870
       4347.6500      0.26131080
       4349.1200      0.27301080
       4350.5900      0.30759960
       4352.0600      0.25904750
       4353.5300      0.21356520
       4355.0000      0.21707380
       4356.4700      0.29842530
       4357.9400      0.32684520
