Units are: observed wavelength (Ang), observed flux (10^-15 erg/s/cm^2/Ang)
       3474.0000     0.080681000
       3475.4700    -0.072671340
       3476.9400     -0.54899230
       3478.4100     -0.33518260
       3479.8800     0.021471670
       3481.3500     -0.33146180
       3482.8200     -0.25793660
       3484.2900     -0.11012840
       3485.7600     -0.22477700
       3487.2300     0.098721270
       3488.7000      0.21335030
       3490.1700      0.29183850
       3491.6400      0.49602540
       3493.1100      0.33960350
       3494.5800      0.16957600
       3496.0500      0.19775470
       3497.5200      0.36199060
       3498.9900      0.30773950
       3500.4600      0.24093100
       3501.9300      0.19608510
       3503.4000      0.18290030
       3504.8700      0.28910180
       3506.3400      0.25447300
       3507.8100      0.13140260
       3509.2800     0.010273760
       3510.7500    -0.073703640
       3512.2200     -0.14913420
       3513.6900    -0.053917630
       3515.1600    -0.036767460
       3516.6300    -0.030039170
       3518.1000      0.14629550
       3519.5700      0.17520250
       3521.0400    -0.071565950
       3522.5100     -0.19009070
       3523.9800      0.52200850
       3525.4500       1.0057670
       3526.9200      0.49429770
       3528.3900     0.043867270
       3529.8600      0.22061710
       3531.3300      0.61943550
       3532.8000      0.57301860
       3534.2700      0.14351730
       3535.7400   -0.0062846460
       3537.2100      0.12517030
       3538.6800      0.15036690
       3540.1500    -0.090735410
       3541.6200     -0.15965370
       3543.0900     0.084198630
       3544.5600     -0.15441720
       3546.0300     -0.32987960
       3547.5000     0.056943530
       3548.9700      0.18250480
       3550.4400    -0.053637990
       3551.9100     -0.10410260
       3553.3800     0.056909900
       3554.8500      0.38991930
       3556.3200      0.32411570
       3557.7900    -0.066081460
       3559.2600    -0.062516560
       3560.7300     0.015765750
       3562.2000     0.020042680
       3563.6700    -0.074549680
       3565.1400     -0.13313190
       3566.6100     0.043287090
       3568.0800      0.23235130
       3569.5500      0.15959500
       3571.0200      0.12533930
       3572.4900      0.24970500
       3573.9600      0.23515740
       3575.4300      0.31244440
       3576.9000      0.33819140
       3578.3700      0.14365990
       3579.8400     0.099859450
       3581.3100      0.11018970
       3582.7800     0.024576950
       3584.2500    -0.065306370
       3585.7200      0.16123860
       3587.1900      0.18617840
       3588.6600      0.19769360
       3590.1300      0.42486660
       3591.6000      0.19834820
       3593.0700     0.053728130
       3594.5400      0.29931310
       3596.0100      0.39507110
       3597.4800      0.28747490
       3598.9500      0.35146970
       3600.4200      0.40590810
       3601.8900      0.33716930
       3603.3600      0.10222240
       3604.8300     -0.10811900
       3606.3000    -0.025350540
       3607.7700      0.30024950
       3609.2400      0.30276000
       3610.7100      0.11562320
       3612.1800      0.21403810
       3613.6500      0.28645350
       3615.1200      0.36626360
       3616.5900      0.32350130
       3618.0600      0.28467300
       3619.5300      0.21527570
       3621.0000     0.071543920
       3622.4700      0.28177370
       3623.9400      0.94683890
       3625.4100      0.70029160
       3626.8800    -0.064393640
       3628.3500     0.095497240
       3629.8200      0.44003720
       3631.2900      0.35407210
       3632.7600     0.082928310
       3634.2300      0.14460080
       3635.7000      0.15392120
       3637.1700      0.15045840
       3638.6400      0.44340170
       3640.1100      0.41289880
       3641.5800      0.81131340
       3643.0500       1.8352410
       3644.5200      0.96494050
       3645.9900      0.18294310
       3647.4600       1.0216990
       3648.9300       1.2423610
       3650.4000      0.54068260
       3651.8700      0.19443710
       3653.3400      0.34015190
       3654.8100      0.18781060
       3656.2800      0.18638930
       3657.7500      0.24336250
       3659.2200      0.47183280
       3660.6900      0.87008560
       3662.1600      0.47024990
       3663.6300     0.047021380
       3665.1000     0.086128380
       3666.5700      0.24181270
       3668.0400      0.35800020
       3669.5100      0.22547070
       3670.9800      0.14046150
       3672.4500      0.19431310
       3673.9200      0.24052210
       3675.3900      0.16294230
       3676.8600      0.59774600
       3678.3300      0.90358130
       3679.8000      0.50926210
       3681.2700      0.36598250
       3682.7400      0.26521080
       3684.2100      0.27637680
       3685.6800      0.35338920
       3687.1500       1.0488810
       3688.6200       1.1979300
       3690.0900      0.34069100
       3691.5600      0.19804120
       3693.0300      0.25649590
       3694.5000      0.18537410
       3695.9700      0.20039500
       3697.4400      0.27527440
       3698.9100      0.81231980
       3700.3800      0.95343850
       3701.8500      0.27519630
       3703.3200      0.18418070
       3704.7900      0.16539280
       3706.2600     0.067725460
       3707.7300      0.21467170
       3709.2000      0.32604510
       3710.6700      0.23462130
       3712.1400      0.23886440
       3713.6100      0.47309350
       3715.0800      0.56901210
       3716.5500      0.29742910
       3718.0200      0.39236090
       3719.4900      0.69522930
       3720.9600      0.47789520
       3722.4300      0.12591880
       3723.9000      0.18965610
       3725.3700      0.17157860
       3726.8400      0.18848610
       3728.3100      0.23120190
       3729.7800      0.29759620
       3731.2500      0.28924260
       3732.7200      0.16126390
       3734.1900      0.19082750
       3735.6600      0.34972400
       3737.1300      0.33004530
       3738.6000      0.22753580
       3740.0700      0.33794220
       3741.5400      0.52454470
       3743.0100      0.51597010
       3744.4800      0.41760700
       3745.9500      0.24373740
       3747.4200      0.19772980
       3748.8900      0.33468070
       3750.3600      0.29803560
       3751.8300      0.26667850
       3753.3000      0.30227880
       3754.7700      0.35641720
       3756.2400      0.41158350
       3757.7100      0.55579550
       3759.1800      0.58533260
       3760.6500      0.34830790
       3762.1200      0.12887600
       3763.5900      0.45697900
       3765.0600      0.83944400
       3766.5300      0.38256430
       3768.0000      0.17921670
       3769.4700      0.28626710
       3770.9400      0.38919410
       3772.4100      0.53094450
       3773.8800      0.36564730
       3775.3500      0.31331280
       3776.8200      0.17992620
       3778.2901      0.15910940
       3779.7600      0.27954490
       3781.2300      0.33998780
       3782.7000      0.36108530
       3784.1700      0.36005520
       3785.6400      0.35110880
       3787.1100      0.30252800
       3788.5800      0.35990140
       3790.0500      0.16059630
       3791.5200      0.25398430
       3792.9900      0.29184810
       3794.4600      0.16690660
       3795.9300      0.18016380
       3797.4000      0.23411670
       3798.8700      0.23975040
       3800.3400      0.19200420
       3801.8100      0.30977750
       3803.2800      0.36547460
       3804.7500      0.35634250
       3806.2200      0.45328390
       3807.6900      0.45287880
       3809.1600      0.28468590
       3810.6300     0.044410400
       3812.1000     0.082500520
       3813.5700     0.068519660
       3815.0400      0.17957900
       3816.5100      0.24835300
       3817.9800      0.16428740
       3819.4500     0.074596230
       3820.9200      0.10934650
       3822.3900     0.083544460
       3823.8600     0.057460600
       3825.3300      0.12347010
       3826.8000     0.099529500
       3828.2700      0.13480400
       3829.7400      0.31610720
       3831.2100      0.33467420
       3832.6800      0.37956620
       3834.1500      0.35681050
       3835.6200      0.19169390
       3837.0900      0.24390810
       3838.5600      0.26157900
       3840.0300      0.15095980
       3841.5000      0.13578660
       3842.9700      0.27142940
       3844.4400      0.32192420
       3845.9100      0.25117710
       3847.3800      0.20074050
       3848.8500      0.22721790
       3850.3200      0.23173380
       3851.7900      0.27234770
       3853.2600      0.20600690
       3854.7300      0.12155140
       3856.2000      0.20013980
       3857.6700      0.20581120
       3859.1400      0.22023600
       3860.6100      0.34608520
       3862.0800      0.28117380
       3863.5500      0.22272150
       3865.0200      0.32503460
       3866.4900      0.25764800
       3867.9600      0.22882220
       3869.4300      0.40932300
       3870.9000      0.60104380
       3872.3700      0.73568080
       3873.8400      0.59785280
       3875.3100      0.46243630
       3876.7800      0.36015140
       3878.2500      0.32434220
       3879.7200      0.44999270
       3881.1900      0.53658320
       3882.6600      0.51189930
       3884.1300      0.41681250
       3885.6000      0.38118330
       3887.0700      0.48160830
       3888.5400      0.42895420
       3890.0100      0.41499460
       3891.4800      0.28230800
       3892.9500      0.51473800
       3894.4200      0.63602950
       3895.8900      0.37819820
       3897.3600      0.58684670
       3898.8300      0.61880900
       3900.3000      0.35912850
       3901.7700      0.40440900
       3903.2400      0.50652020
       3904.7100      0.48667780
       3906.1800      0.55999850
       3907.6500      0.63192940
       3909.1200      0.40620340
       3910.5900      0.53400180
       3912.0600      0.56058030
       3913.5300      0.45910030
       3915.0000      0.41318900
       3916.4700      0.48617800
       3917.9400      0.55063080
       3919.4100      0.49824350
       3920.8800      0.53508700
       3922.3500      0.71000020
       3923.8200      0.63704250
       3925.2900      0.50618200
       3926.7600      0.66492250
       3928.2300      0.66105770
       3929.7000      0.65074040
       3931.1700      0.68755630
       3932.6400      0.73624660
       3934.1100      0.62551190
       3935.5800      0.48198620
       3937.0500      0.68386050
       3938.5200      0.71343850
       3939.9900      0.56206750
       3941.4600      0.62456880
       3942.9300      0.93282850
       3944.4000      0.90274600
       3945.8700      0.73659940
       3947.3400      0.90611180
       3948.8100      0.83050540
       3950.2800      0.57653620
       3951.7500      0.59337310
       3953.2200      0.53089740
       3954.6900      0.51999970
       3956.1600      0.64706550
       3957.6300      0.76945680
       3959.1000      0.90330180
       3960.5700      0.77523630
       3962.0400      0.73582580
       3963.5100      0.81071440
       3964.9800      0.59375160
       3966.4500      0.58164620
       3967.9200      0.88967710
       3969.3900      0.98180150
       3970.8600      0.82966710
       3972.3300      0.83714510
       3973.8000      0.72389240
       3975.2700      0.78783980
       3976.7400      0.93280680
       3978.2100      0.82259820
       3979.6800      0.60150720
       3981.1500      0.64107190
       3982.6200      0.75020120
       3984.0900      0.68984630
       3985.5600      0.83187660
       3987.0300       1.0271860
       3988.5000      0.79780700
       3989.9700      0.72526070
       3991.4400      0.60115050
       3992.9100      0.60458560
       3994.3800      0.79616560
       3995.8500      0.93213950
       3997.3200      0.71699420
       3998.7900      0.63804130
       4000.2600      0.68880050
       4001.7300      0.78184490
       4003.2000      0.93731990
       4004.6700      0.86032830
       4006.1400      0.80283550
       4007.6100      0.98066500
       4009.0800      0.82664660
       4010.5500      0.78568710
       4012.0200      0.96760240
       4013.4900       1.1686590
       4014.9600      0.83706220
       4016.4300      0.80352330
       4017.9000      0.98039650
       4019.3700      0.90346490
       4020.8400      0.83323900
       4022.3100      0.64687090
       4023.7800      0.77864340
       4025.2500      0.90145830
       4026.7200      0.75974940
       4028.1900      0.68156180
       4029.6600      0.76914760
       4031.1300      0.75855490
       4032.6000      0.76486030
       4034.0700      0.97848840
       4035.5400      0.78627260
       4037.0100      0.74485440
       4038.4800      0.79673830
       4039.9500      0.70344080
       4041.4200      0.73913880
       4042.8900      0.86712340
       4044.3600      0.87585480
       4045.8300      0.62367910
       4047.3000      0.76613780
       4048.7700       1.0640320
       4050.2400      0.96071490
       4051.7100      0.73361830
       4053.1800      0.71245450
       4054.6500      0.68479420
       4056.1200      0.69408930
       4057.5900      0.64477110
       4059.0600      0.64559330
       4060.5300      0.64837310
       4062.0000      0.63364790
       4063.4700      0.64609120
       4064.9400      0.68542990
       4066.4100      0.63402700
       4067.8800      0.51930010
       4069.3500      0.60437160
       4070.8200      0.82063550
       4072.2900      0.90580370
       4073.7600      0.68903490
       4075.2300      0.55242160
       4076.7000      0.61099990
       4078.1700      0.54129170
       4079.6400      0.47450660
       4081.1100      0.58257470
       4082.5800      0.68363710
       4084.0500      0.66623590
       4085.5200      0.68610420
       4086.9900      0.63831870
       4088.4600      0.59167150
       4089.9300      0.63045700
       4091.4001      0.54398690
       4092.8700      0.54743610
       4094.3400      0.56192490
       4095.8100      0.54944800
       4097.2800      0.62982090
       4098.7500      0.61567060
       4100.2200      0.63697780
       4101.6900      0.62460770
       4103.1600      0.60405000
       4104.6300      0.52107880
       4106.1000      0.52264300
       4107.5700      0.60868470
       4109.0400      0.66027970
       4110.5100      0.59004720
       4111.9800      0.52915150
       4113.4500      0.60453160
       4114.9200      0.53393680
       4116.3900      0.49983920
       4117.8600      0.53471410
       4119.3300      0.41158030
       4120.8000      0.43034420
       4122.2700      0.51966740
       4123.7400      0.49603550
       4125.2100      0.49703850
       4126.6800      0.47191590
       4128.1500      0.54660260
       4129.6200      0.58708040
       4131.0900      0.59733320
       4132.5600      0.54194260
       4134.0300      0.45568050
       4135.5000      0.40573560
       4136.9700      0.44375380
       4138.4400      0.56695280
       4139.9100      0.53029910
       4141.3800      0.38060900
       4142.8500      0.42998680
       4144.3200      0.50194470
       4145.7900      0.48769200
       4147.2600      0.45596500
       4148.7300      0.42935110
       4150.2000      0.55460310
       4151.6700      0.51363180
       4153.1400      0.43582030
       4154.6100      0.45851090
       4156.0800      0.40810230
       4157.5500      0.38683710
       4159.0200      0.37964890
       4160.4900      0.35820060
       4161.9600      0.38873340
       4163.4300      0.32407810
       4164.9000      0.38441960
       4166.3700      0.39050570
       4167.8400      0.37817930
       4169.3100      0.37205640
       4170.7800      0.30147420
       4172.2500      0.34473670
       4173.7200      0.40974800
       4175.1900      0.36469850
       4176.6600      0.31227080
       4178.1300      0.37733550
       4179.6000      0.37713380
       4181.0700      0.34028510
       4182.5400      0.36362420
       4184.0100      0.36825720
       4185.4800      0.34615050
       4186.9500      0.35231290
       4188.4200      0.37276310
       4189.8900      0.33470110
       4191.3600      0.35620170
       4192.8300      0.39463910
       4194.3000      0.34674250
       4195.7700      0.35386060
       4197.2400      0.42551970
       4198.7100      0.43906660
       4200.1800      0.32128460
       4201.6500      0.28199930
       4203.1200      0.37470930
       4204.5900      0.39155550
       4206.0600      0.40304300
       4207.5300      0.37950260
       4209.0000      0.38706480
       4210.4700      0.40518980
       4211.9400      0.40086720
       4213.4100      0.37137600
       4214.8800      0.39392170
       4216.3500      0.39570590
       4217.8200      0.39321570
       4219.2900      0.36683630
       4220.7600      0.37258520
       4222.2300      0.37690190
       4223.7000      0.35304940
       4225.1700      0.36193800
       4226.6400      0.42886140
       4228.1100      0.49032300
       4229.5800      0.43584970
       4231.0500      0.36413660
       4232.5200      0.38970820
       4233.9900      0.41608670
       4235.4600      0.44297850
       4236.9300      0.44843310
       4238.4000      0.43488100
       4239.8700      0.46106700
       4241.3400      0.45151470
       4242.8100      0.41225580
       4244.2800      0.38399480
       4245.7500      0.35832550
       4247.2200      0.39534810
       4248.6900      0.43978410
       4250.1600      0.42052000
       4251.6300      0.38787000
       4253.1000      0.39186730
       4254.5700      0.41660650
       4256.0400      0.42312270
       4257.5100      0.42363540
       4258.9800      0.43015350
       4260.4500      0.42280470
       4261.9200      0.40859650
       4263.3900      0.39545200
       4264.8600      0.39895930
       4266.3300      0.41982830
       4267.8000      0.42779550
       4269.2700      0.42559560
       4270.7400      0.40994270
       4272.2100      0.39971960
       4273.6800      0.36378210
       4275.1500      0.39623240
       4276.6200      0.43390170
       4278.0900      0.43839680
       4279.5600      0.45503770
       4281.0300      0.45700060
       4282.5000      0.43554990
       4283.9700      0.44947570
       4285.4400      0.44587160
       4286.9100      0.41535390
       4288.3800      0.40795440
       4289.8500      0.40396750
       4291.3200      0.41961520
       4292.7900      0.47514320
       4294.2600      0.46732650
       4295.7300      0.42915350
       4297.2000      0.39495080
       4298.6700      0.41328270
       4300.1400      0.44821250
       4301.6100      0.42326180
       4303.0800      0.43364280
       4304.5500      0.46895680
       4306.0200      0.48763170
       4307.4900      0.44880940
       4308.9600      0.43026010
       4310.4300      0.44491610
       4311.9000      0.49454320
       4313.3700      0.44683500
       4314.8400      0.47310300
       4316.3100      0.48020000
       4317.7800      0.44073480
       4319.2500      0.41207850
       4320.7200      0.39453870
       4322.1900      0.43177310
       4323.6600      0.48063020
       4325.1300      0.51763930
       4326.6000      0.52814450
       4328.0700      0.51167480
       4329.5400      0.48780440
       4331.0100      0.43698090
       4332.4800      0.46189000
       4333.9500      0.46423990
       4335.4200      0.44484690
       4336.8900      0.44176300
       4338.3600      0.45998140
       4339.8300      0.46804020
       4341.3000      0.46479400
       4342.7700      0.46142080
       4344.2400      0.48824630
       4345.7100      0.51128220
       4347.1800      0.44778180
       4348.6500      0.46186760
       4350.1200      0.47272520
       4351.5900      0.44313430
       4353.0600      0.48230590
       4354.5300      0.48324320
       4356.0000      0.44337870
       4357.4700      0.47822330
       4358.9400      0.46883050
