Units are: observed wavelength (Ang), observed flux (10^-15 erg/s/cm^2/Ang)
       3478.0000      0.33853010
       3479.4700      0.33852840
       3480.9400     0.091598800
       3482.4100     -0.18685100
       3483.8800      0.27726220
       3485.3500      0.72870000
       3486.8200       2.1378770
       3488.2900      0.21644570
       3489.7600      0.12452710
       3491.2300      0.38933730
       3492.7000      0.26891850
       3494.1700      0.52411800
       3495.6400      0.57980900
       3497.1100     -0.17739140
       3498.5800      0.25704260
       3500.0500      0.68155900
       3501.5200      0.33476390
       3502.9900      0.39634380
       3504.4600      0.27523440
       3505.9300    -0.017334980
       3507.4000     0.082559220
       3508.8700     0.080344780
       3510.3400      0.30196740
       3511.8100      0.22976520
       3513.2800    -0.027894850
       3514.7500    -0.010589030
       3516.2200      0.28492750
       3517.6900      0.35101950
       3519.1600      0.18373960
       3520.6300     -0.24378840
       3522.1000      0.20555110
       3523.5700      0.33712870
       3525.0400      0.26570590
       3526.5100       1.0955950
       3527.9800      0.58194210
       3529.4500      0.24369860
       3530.9200      0.91602490
       3532.3900      0.17968200
       3533.8600     -0.15705620
       3535.3300      0.18238430
       3536.8000     0.098347950
       3538.2700      0.22621530
       3539.7400      0.30874370
       3541.2100      0.11395510
       3542.6800    -0.073563940
       3544.1500     -0.14692840
       3545.6200     0.066233520
       3547.0900      0.29487830
       3548.5600      0.15919710
       3550.0300      0.42464230
       3551.5000      0.44937710
       3552.9700    -0.073391800
       3554.4400     -0.11440900
       3555.9100    -0.036234830
       3557.3800      0.17340960
       3558.8500      0.37921840
       3560.3200      0.23499040
       3561.7900      0.15305710
       3563.2600     0.044527690
       3564.7300     0.023910160
       3566.2000      0.32434420
       3567.6700      0.43715860
       3569.1400     0.043277110
       3570.6100   -0.0058161590
       3572.0800    0.0047848270
       3573.5500      0.34731880
       3575.0200      0.16244670
       3576.4900   -0.0085885420
       3577.9600     0.093697280
       3579.4300      0.22969620
       3580.9000      0.55560230
       3582.3700      0.30894990
       3583.8400     0.022215780
       3585.3100      0.14476090
       3586.7800      0.24548810
       3588.2500     0.013049200
       3589.7200     0.010618420
       3591.1900      0.21392780
       3592.6600     0.081347410
       3594.1300     0.023962300
       3595.6000     0.061506470
       3597.0700     0.065258080
       3598.5399     -0.11182490
       3600.0100      0.39289930
       3601.4800      0.40428740
       3602.9500      0.25614320
       3604.4200      0.68947400
       3605.8900      0.73342560
       3607.3600      0.59649080
       3608.8300      0.31468200
       3610.3000      0.15793880
       3611.7700      0.47405200
       3613.2400      0.24293490
       3614.7100     0.071247910
       3616.1800      0.12873120
       3617.6500      0.23726390
       3619.1200    -0.017887270
       3620.5900      0.58197440
       3622.0600      0.67214720
       3623.5300      0.12715460
       3625.0000      0.27867800
       3626.4700      0.36792120
       3627.9400      0.28789760
       3629.4100      0.14358730
       3630.8800      0.25169240
       3632.3500      0.19284510
       3633.8200      0.20832040
       3635.2900      0.19631600
       3636.7600      0.17950210
       3638.2300      0.41014360
       3639.7000      0.12811230
       3641.1700      0.26357000
       3642.6400      0.40142260
       3644.1100     0.021356350
       3645.5800     0.064638240
       3647.0500     0.074956100
       3648.5200    -0.091689640
       3649.9900      0.35239290
       3651.4600     0.055366940
       3652.9300    0.0089644960
       3654.4000      0.25617220
       3655.8700     0.051837270
       3657.3400     0.065268670
       3658.8100      0.14445610
       3660.2800      0.21773070
       3661.7500      0.15776430
       3663.2200    -0.092930870
       3664.6900      0.10862200
       3666.1600      0.21646990
       3667.6300      0.10535740
       3669.1000      0.30993560
       3670.5700      0.36251060
       3672.0400      0.24690880
       3673.5100      0.22635490
       3674.9800      0.53774180
       3676.4500      0.93145750
       3677.9200      0.62429740
       3679.3900      0.19751850
       3680.8600      0.14582850
       3682.3300      0.33189560
       3683.8000      0.23101850
       3685.2700      0.32794590
       3686.7400     0.099285450
       3688.2100      0.20408940
       3689.6800      0.38858130
       3691.1500      0.36839070
       3692.6200      0.56197910
       3694.0900      0.34891820
       3695.5600     0.046521980
       3697.0300      0.24069370
       3698.5000      0.33325560
       3699.9700      0.18202260
       3701.4400      0.16207750
       3702.9100      0.45251270
       3704.3800      0.29206890
       3705.8500      0.38327490
       3707.3200      0.85688590
       3708.7900      0.41154510
       3710.2600     0.072174860
       3711.7300     0.082913550
       3713.2000      0.30255250
       3714.6700      0.23544580
       3716.1400      0.14236670
       3717.6100      0.12239820
       3719.0800      0.44902360
       3720.5500      0.34004260
       3722.0200      0.37465440
       3723.4900      0.17840510
       3724.9600      0.28532290
       3726.4300      0.17410270
       3727.9000      0.13192990
       3729.3700      0.24871540
       3730.8400      0.37603190
       3732.3100      0.53482400
       3733.7800      0.10454930
       3735.2500      0.15744930
       3736.7200      0.46477350
       3738.1900      0.56496750
       3739.6600      0.33689240
       3741.1300      0.35829040
       3742.6000      0.34329640
       3744.0700      0.36953570
       3745.5400      0.41811480
       3747.0100      0.37916090
       3748.4800      0.30039690
       3749.9500      0.27101130
       3751.4200      0.13955640
       3752.8900     0.043897570
       3754.3600     0.058351500
       3755.8300      0.21174340
       3757.3000      0.43002770
       3758.7700      0.47617420
       3760.2400      0.46257050
       3761.7100      0.37882520
       3763.1800      0.26459150
       3764.6500      0.65281240
       3766.1200      0.65674520
       3767.5900      0.35543200
       3769.0600      0.33675550
       3770.5300      0.27281180
       3772.0000     0.049767250
       3773.4700      0.48978350
       3774.9400      0.35554850
       3776.4100      0.43928590
       3777.8800      0.28967870
       3779.3500     0.070283710
       3780.8200      0.28504510
       3782.2900      0.14529750
       3783.7600      0.15567730
       3785.2300      0.15207840
       3786.7000     0.098952320
       3788.1700      0.15713790
       3789.6400      0.22336050
       3791.1100      0.15461630
       3792.5800      0.25579680
       3794.0500      0.23800460
       3795.5200      0.19137520
       3796.9900      0.23569380
       3798.4600      0.34616680
       3799.9300      0.30605770
       3801.4000      0.45434700
       3802.8700      0.36429500
       3804.3400      0.20032690
       3805.8100      0.20603160
       3807.2800      0.29737610
       3808.7500      0.27391150
       3810.2200      0.25077080
       3811.6900      0.21717290
       3813.1600      0.18372630
       3814.6300      0.15251620
       3816.1000      0.14850350
       3817.5700      0.14028460
       3819.0400      0.16680940
       3820.5100      0.22811490
       3821.9800      0.11781230
       3823.4500      0.11697580
       3824.9200      0.25961290
       3826.3900      0.21731280
       3827.8600     0.083300170
       3829.3300      0.22757240
       3830.8000      0.20292490
       3832.2700      0.19879390
       3833.7400      0.11446740
       3835.2100      0.20398870
       3836.6800      0.13829570
       3838.1500      0.23262100
       3839.6200      0.38616630
       3841.0900      0.23683690
       3842.5600      0.32613980
       3844.0300      0.38366110
       3845.5000      0.10517830
       3846.9700      0.20036510
       3848.4400      0.17662350
       3849.9100      0.19349140
       3851.3800      0.31206630
       3852.8500      0.16431870
       3854.3200      0.23836280
       3855.7900      0.25543250
       3857.2600      0.14753200
       3858.7300      0.20314800
       3860.2000      0.19418470
       3861.6700      0.23318750
       3863.1400      0.32211550
       3864.6100      0.24270800
       3866.0800      0.21377620
       3867.5500      0.18699880
       3869.0200      0.30283560
       3870.4900      0.34438280
       3871.9600      0.25681340
       3873.4300      0.32625980
       3874.9000      0.43450810
       3876.3700      0.51726930
       3877.8400      0.37454230
       3879.3100      0.27167290
       3880.7800      0.35564560
       3882.2500      0.37242720
       3883.7200      0.32399250
       3885.1900      0.50559160
       3886.6600      0.46969420
       3888.1300      0.42680260
       3889.6000      0.39183820
       3891.0700      0.30176690
       3892.5400      0.39802110
       3894.0100      0.51446990
       3895.4800      0.66286410
       3896.9500      0.41937290
       3898.4200      0.58698460
       3899.8900      0.74010540
       3901.3600      0.47866370
       3902.8300      0.49455240
       3904.3000      0.33764710
       3905.7700      0.42005340
       3907.2400      0.72418050
       3908.7100      0.65465690
       3910.1800      0.45990390
       3911.6499      0.46812070
       3913.1200      0.57395830
       3914.5900      0.64599250
       3916.0600      0.54177800
       3917.5300      0.65573780
       3919.0000      0.45916160
       3920.4700      0.60576680
       3921.9400      0.63284280
       3923.4100      0.54775830
       3924.8800      0.58674560
       3926.3500      0.74722350
       3927.8200      0.63162480
       3929.2900      0.74363950
       3930.7600      0.58165330
       3932.2300      0.58527130
       3933.7000      0.57960720
       3935.1700      0.61853020
       3936.6400      0.51108620
       3938.1100      0.49620200
       3939.5800      0.55669120
       3941.0500      0.56743000
       3942.5200      0.53512980
       3943.9900      0.51527880
       3945.4600      0.51166830
       3946.9300      0.50590990
       3948.4000      0.52587440
       3949.8700      0.63420530
       3951.3400      0.57943800
       3952.8100      0.54783700
       3954.2800      0.74700410
       3955.7500      0.89358410
       3957.2200      0.83415720
       3958.6900      0.63231460
       3960.1600      0.62291510
       3961.6300      0.81292070
       3963.1000       1.0048500
       3964.5700      0.72501460
       3966.0400      0.63798250
       3967.5100      0.71613140
       3968.9800      0.65064780
       3970.4500      0.56991410
       3971.9200      0.52037820
       3973.3900      0.89213900
       3974.8600      0.93942960
       3976.3300      0.56601700
       3977.8000      0.55204330
       3979.2700      0.66406360
       3980.7400      0.67371360
       3982.2100      0.61620440
       3983.6800      0.89183960
       3985.1500      0.96451400
       3986.6200      0.68976480
       3988.0900      0.77079650
       3989.5600      0.66202210
       3991.0300      0.84550950
       3992.5000      0.86515160
       3993.9700      0.67797450
       3995.4400      0.83935430
       3996.9100      0.87121940
       3998.3800      0.77690400
       3999.8500      0.65653420
       4001.3200      0.89475180
       4002.7900      0.73639370
       4004.2600      0.75098590
       4005.7300      0.82410490
       4007.2000      0.89182380
       4008.6700      0.65520690
       4010.1400      0.55935900
       4011.6100      0.76805020
       4013.0800      0.92287920
       4014.5500      0.72872120
       4016.0200      0.60508230
       4017.4900      0.72725490
       4018.9600      0.82610890
       4020.4300      0.61837100
       4021.9000      0.86892380
       4023.3700      0.63801650
       4024.8400      0.66426500
       4026.3100      0.68487370
       4027.7800      0.77759920
       4029.2500      0.55457840
       4030.7200      0.62284420
       4032.1900      0.65314290
       4033.6600      0.67358570
       4035.1300      0.73427370
       4036.6000      0.63760040
       4038.0700      0.56757210
       4039.5400      0.77393610
       4041.0100      0.62273590
       4042.4800      0.61678210
       4043.9500      0.71279190
       4045.4200       1.0534550
       4046.8900      0.72509750
       4048.3600      0.87888230
       4049.8300      0.87588760
       4051.3000      0.65124460
       4052.7700      0.76194830
       4054.2400      0.78918640
       4055.7100      0.58374400
       4057.1800      0.58108140
       4058.6500      0.77101130
       4060.1200      0.72993530
       4061.5900      0.66239270
       4063.0600      0.84623150
       4064.5300      0.80587880
       4066.0000      0.63480570
       4067.4700      0.54019880
       4068.9400      0.65536180
       4070.4100      0.67716710
       4071.8800      0.60189220
       4073.3500      0.61833220
       4074.8200      0.67731990
       4076.2900      0.55376860
       4077.7600      0.61891660
       4079.2300      0.63394050
       4080.7000      0.58597670
       4082.1700      0.58471290
       4083.6400      0.61608580
       4085.1100      0.51853830
       4086.5800      0.47621080
       4088.0500      0.58960290
       4089.5200      0.64117700
       4090.9900      0.61617470
       4092.4600      0.62553110
       4093.9300      0.60584990
       4095.4000      0.57613720
       4096.8700      0.54430330
       4098.3400      0.61350720
       4099.8100      0.66671230
       4101.2800      0.74278210
       4102.7500      0.86109270
       4104.2200      0.59797170
       4105.6900      0.50575380
       4107.1600      0.55687430
       4108.6300      0.52421590
       4110.1000      0.61237060
       4111.5700      0.60161290
       4113.0400      0.54660790
       4114.5100      0.50350600
       4115.9800      0.38474760
       4117.4500      0.43583610
       4118.9200      0.53846190
       4120.3900      0.41957870
       4121.8600      0.42248690
       4123.3300      0.50407250
       4124.8000      0.48425630
       4126.2700      0.49863070
       4127.7400      0.48356450
       4129.2100      0.48110840
       4130.6800      0.51304700
       4132.1500      0.54978660
       4133.6200      0.49124670
       4135.0900      0.49866460
       4136.5600      0.42573610
       4138.0300      0.40878940
       4139.5000      0.42113990
       4140.9700      0.39830380
       4142.4400      0.40789770
       4143.9100      0.42788240
       4145.3800      0.50326450
       4146.8500      0.50069030
       4148.3200      0.44903150
       4149.7900      0.50612960
       4151.2600      0.47022170
       4152.7300      0.43335460
       4154.2000      0.39931280
       4155.6700      0.39466490
       4157.1400      0.44286640
       4158.6100      0.38609620
       4160.0800      0.34414560
       4161.5500      0.33376970
       4163.0200      0.40461030
       4164.4900      0.43753900
       4165.9600      0.51040780
       4167.4300      0.42719580
       4168.9000      0.36286220
       4170.3700      0.35545750
       4171.8400      0.34600660
       4173.3100      0.34269130
       4174.7800      0.36468210
       4176.2500      0.38017400
       4177.7200      0.39298860
       4179.1900      0.40984270
       4180.6600      0.42514260
       4182.1300      0.36672310
       4183.6000      0.32902770
       4185.0700      0.33049690
       4186.5400      0.38372240
       4188.0100      0.43502000
       4189.4800      0.43353530
       4190.9500      0.44336260
       4192.4200      0.33869370
       4193.8900      0.36141510
       4195.3600      0.40123740
       4196.8300      0.35910980
       4198.3000      0.40682770
       4199.7700      0.42456090
       4201.2400      0.35763590
       4202.7100      0.39626860
       4204.1800      0.35077780
       4205.6500      0.31805510
       4207.1200      0.32854820
       4208.5900      0.37683880
       4210.0600      0.38264360
       4211.5300      0.37431100
       4213.0000      0.37388830
       4214.4700      0.42138570
       4215.9400      0.40476120
       4217.4100      0.38700890
       4218.8800      0.37582630
       4220.3500      0.42658740
       4221.8200      0.41747880
       4223.2900      0.40752770
       4224.7599      0.39424100
       4226.2300      0.36075880
       4227.7000      0.37531440
       4229.1700      0.37117000
       4230.6400      0.38591330
       4232.1100      0.41086700
       4233.5800      0.39298660
       4235.0500      0.40872930
       4236.5200      0.42977990
       4237.9900      0.42461770
       4239.4600      0.41250390
       4240.9300      0.42745330
       4242.4000      0.40213450
       4243.8700      0.40895090
       4245.3400      0.40385350
       4246.8100      0.42412510
       4248.2800      0.40795630
       4249.7500      0.37000870
       4251.2200      0.39982220
       4252.6900      0.43853510
       4254.1600      0.45643460
       4255.6300      0.40846320
       4257.1000      0.41164370
       4258.5700      0.40828720
       4260.0400      0.39764350
       4261.5100      0.42746710
       4262.9800      0.44404740
       4264.4500      0.43142810
       4265.9200      0.44461220
       4267.3900      0.46361620
       4268.8600      0.43125470
       4270.3300      0.41744940
       4271.8000      0.41977190
       4273.2700      0.39685190
       4274.7400      0.39551090
       4276.2100      0.45062390
       4277.6800      0.43695190
       4279.1500      0.37041540
       4280.6200      0.38325310
       4282.0900      0.40496340
       4283.5600      0.41193290
       4285.0300      0.47645400
       4286.5000      0.45616420
       4287.9700      0.38939500
       4289.4400      0.40025690
       4290.9100      0.41522190
       4292.3800      0.44249900
       4293.8500      0.43882510
       4295.3200      0.44691320
       4296.7900      0.43645370
       4298.2600      0.40530690
       4299.7300      0.39807190
       4301.2000      0.39955660
       4302.6700      0.43048340
       4304.1400      0.44168160
       4305.6100      0.43564360
       4307.0800      0.44900550
       4308.5500      0.46102950
       4310.0200      0.42936210
       4311.4900      0.39932890
       4312.9600      0.40432980
       4314.4300      0.41211060
       4315.9000      0.43871790
       4317.3700      0.44366980
       4318.8400      0.42320420
       4320.3100      0.40178090
       4321.7800      0.40669870
       4323.2500      0.40488470
       4324.7200      0.43843710
       4326.1900      0.43700350
       4327.6600      0.42272260
       4329.1300      0.39467740
       4330.6000      0.39184560
       4332.0700      0.39557070
       4333.5400      0.40465880
       4335.0100      0.43417560
       4336.4800      0.45896680
       4337.9500      0.40388580
       4339.4200      0.39470220
       4340.8900      0.40194830
       4342.3600      0.41227940
       4343.8300      0.42321310
       4345.3000      0.42351960
       4346.7700      0.44773020
       4348.2400      0.49307330
       4349.7100      0.45889010
       4351.1800      0.43586670
       4352.6500      0.43003970
       4354.1200      0.41739050
       4355.5900      0.41271590
       4357.0600      0.43555920
       4358.5300      0.43437030
       4360.0000      0.41746530
       4361.4700      0.43650220
       4362.9400      0.44893540
