Units are: observed wavelength (Ang), observed flux (10^-15 erg/s/cm^2/Ang)
       3478.0000     0.070386750
       3479.4700     0.027480440
       3480.9400     0.028154660
       3482.4100     0.030818800
       3483.8800     0.071360880
       3485.3500     0.024247640
       3486.8200     0.058124810
       3488.2900      0.12195830
       3489.7600    -0.054731930
       3491.2300     -0.12405460
       3492.7000     0.031034180
       3494.1700      0.13359650
       3495.6400     0.082977050
       3497.1100     -0.12517640
       3498.5800     -0.23972840
       3500.0500     -0.16965510
       3501.5200     0.021194040
       3502.9900    -0.034065400
       3504.4600       1.1701310
       3505.9300       2.3588700
       3507.4000      0.97209290
       3508.8700     -0.44662750
       3510.3400     -0.36311760
       3511.8100    -0.022706470
       3513.2800     -0.18330220
       3514.7500      0.86544080
       3516.2200       1.4376960
       3517.6900      0.22775590
       3519.1600     -0.23221210
       3520.6300    -0.038592600
       3522.1000     0.015803370
       3523.5700    -0.083153050
       3525.0400   -0.0057915020
       3526.5100      0.20708470
       3527.9800     0.010966570
       3529.4500     0.068752670
       3530.9200      0.12953000
       3532.3900     0.047908180
       3533.8600      0.22052440
       3535.3300     0.055576850
       3536.8000     -0.15328450
       3538.2700      0.25891730
       3539.7400      0.36788010
       3541.2100     0.033222880
       3542.6800    -0.082184020
       3544.1500     0.019472270
       3545.6200      0.33516380
       3547.0900      0.14391490
       3548.5600     -0.99088070
       3550.0300     -0.59404220
       3551.5000     0.099386220
       3552.9700    -0.087327790
       3554.4400    -0.065186200
       3555.9100     0.018445610
       3557.3800     0.064427960
       3558.8500    -0.025666010
       3560.3200     -0.18825110
       3561.7900    -0.059487820
       3563.2600      0.13200380
       3564.7300    -0.084792780
       3566.2000     -0.21986530
       3567.6700    -0.092632240
       3569.1400     -0.14139020
       3570.6100    -0.098883710
       3572.0800     0.049187110
       3573.5500    -0.039182530
       3575.0200     -0.13205040
       3576.4900     0.014595230
       3577.9600      0.17210310
       3579.4300     0.096489450
       3580.9000    -0.027344850
       3582.3700      0.27465310
       3583.8400      0.38859360
       3585.3100     0.079114690
       3586.7800     0.048392040
       3588.2500     0.031848770
       3589.7200      0.13245680
       3591.1900     0.011258220
       3592.6600     -0.22569950
       3594.1300     -0.24878930
       3595.6000     -0.11699690
       3597.0700      0.15004500
       3598.5399      0.18584040
       3600.0100     0.043458950
       3601.4800     -0.10566000
       3602.9500     -0.13263690
       3604.4200   -0.0031604160
       3605.8900     0.027082990
       3607.3600    -0.089849900
       3608.8300     -0.10016750
       3610.3000   -0.0047976110
       3611.7700      0.10739120
       3613.2400    -0.048619520
       3614.7100    -0.097358070
       3616.1800      0.21903830
       3617.6500      0.47962650
       3619.1200     0.098033430
       3620.5900     -0.13034490
       3622.0600      0.11055370
       3623.5300     0.058967800
       3625.0000    -0.037565400
       3626.4700    -0.098815810
       3627.9400     0.065139760
       3629.4100     0.020212420
       3630.8800     -0.30376270
       3632.3500     -0.20117320
       3633.8200     -0.19690010
       3635.2900      0.47680540
       3636.7600       1.0959010
       3638.2300      0.33661800
       3639.7000     -0.19115400
       3641.1700     -0.13012250
       3642.6400    -0.014497390
       3644.1100     -0.12746280
       3645.5800      0.65454000
       3647.0500       1.1768030
       3648.5200      0.30896070
       3649.9900   -0.0060189230
       3651.4600      0.14252370
       3652.9300     0.079434040
       3654.4000     0.076585080
       3655.8700     0.046045880
       3657.3400   -0.0028595810
       3658.8100     0.054585410
       3660.2800    -0.072039660
       3661.7500    -0.035429790
       3663.2200     0.022750570
       3664.6900    -0.021510470
       3666.1600     -0.22743570
       3667.6300    -0.065252410
       3669.1000      0.20664910
       3670.5700      0.40250500
       3672.0400      0.32451660
       3673.5100   -0.0084520580
       3674.9800   -0.0043650370
       3676.4500    -0.018553920
       3677.9200     0.043270580
       3679.3900     0.079609360
       3680.8600     -0.21664460
       3682.3300    -0.093265650
       3683.8000      0.18167300
       3685.2700     0.067674570
       3686.7400    0.0070299440
       3688.2100     0.039151970
       3689.6800     0.030902630
       3691.1500    -0.071733740
       3692.6200      0.12132140
       3694.0900      0.25791800
       3695.5600      0.15822440
       3697.0300      0.18386850
       3698.5000      0.28922110
       3699.9700      0.25016970
       3701.4400    -0.071606260
       3702.9100     -0.17871370
       3704.3800      0.16924960
       3705.8500      0.21359380
       3707.3200      0.11537060
       3708.7900      0.10654090
       3710.2600      0.27683180
       3711.7300      0.37001820
       3713.2000      0.11539400
       3714.6700    -0.048299690
       3716.1400    -0.083435390
       3717.6100    -0.011676040
       3719.0800     0.035343550
       3720.5500     0.092947300
       3722.0200      0.28664910
       3723.4900      0.33092170
       3724.9600     0.045133730
       3726.4300     0.045397310
       3727.9000      0.37913000
       3729.3700      0.25309210
       3730.8400      0.54352710
       3732.3100      0.44759770
       3733.7800    -0.065434930
       3735.2500    -0.067910690
       3736.7200     0.051819470
       3738.1900      0.11619150
       3739.6600     0.057111130
       3741.1300      0.12395900
       3742.6000      0.20039530
       3744.0700    0.0053414970
       3745.5400      0.11159220
       3747.0100      0.34719190
       3748.4800      0.38774920
       3749.9500      0.32033030
       3751.4200      0.14551410
       3752.8900     0.092744510
       3754.3600     0.057744080
       3755.8300     0.065793760
       3757.3000      0.28283740
       3758.7700      0.18552180
       3760.2400     -0.10182830
       3761.7100     0.090294100
       3763.1800      0.19866090
       3764.6500     0.046104730
       3766.1200     0.029312210
       3767.5900     0.018439020
       3769.0600      0.13018570
       3770.5300      0.26500760
       3772.0000      0.16899630
       3773.4700     0.068196620
       3774.9400    -0.085117430
       3776.4100     -0.15036780
       3777.8800    -0.019537010
       3779.3500     0.068927580
       3780.8200      0.17016120
       3782.2900      0.17486420
       3783.7600     0.075703830
       3785.2300     0.088069280
       3786.7000      0.14092420
       3788.1700     0.075838200
       3789.6400     0.088336650
       3791.1100      0.22704250
       3792.5800      0.31132720
       3794.0500      0.24573850
       3795.5200      0.15683230
       3796.9900      0.16079290
       3798.4600      0.27273900
       3799.9300      0.24136430
       3801.4000     0.094125860
       3802.8700     0.069974910
       3804.3400    -0.041995920
       3805.8100     0.063493720
       3807.2800      0.33817340
       3808.7500      0.23439790
       3810.2200      0.14418060
       3811.6900      0.17879870
       3813.1600     0.049661550
       3814.6300     0.014184740
       3816.1000      0.10204060
       3817.5700      0.10317560
       3819.0400    -0.014807140
       3820.5100      0.16074590
       3821.9800      0.21252840
       3823.4500      0.18330720
       3824.9200      0.24779680
       3826.3900      0.13957720
       3827.8600     0.021200420
       3829.3300      0.23969400
       3830.8000      0.24298090
       3832.2700      0.36705750
       3833.7400      0.34740530
       3835.2100      0.21751970
       3836.6800      0.22853740
       3838.1500      0.26648470
       3839.6200      0.13159700
       3841.0900     0.070527000
       3842.5600      0.28073290
       3844.0300      0.53674220
       3845.5000      0.38111110
       3846.9700      0.10496990
       3848.4400     0.075807350
       3849.9100      0.22885270
       3851.3800      0.12566040
       3852.8500    -0.027362590
       3854.3200     0.070915710
       3855.7900      0.20818200
       3857.2600      0.12915080
       3858.7300     0.017697900
       3860.2000     0.072154990
       3861.6700     0.013761790
       3863.1400     0.049168920
       3864.6100      0.20140690
       3866.0800      0.11302250
       3867.5500     0.028345690
       3869.0200     0.080729510
       3870.4900      0.12677490
       3871.9600      0.16573890
       3873.4300      0.13143360
       3874.9000     0.083552110
       3876.3700     0.087337640
       3877.8400     0.077136170
       3879.3100      0.11103530
       3880.7800      0.20834820
       3882.2500      0.18619500
       3883.7200      0.11981800
       3885.1900      0.11403600
       3886.6600      0.16842480
       3888.1300      0.19802310
       3889.6000      0.19006950
       3891.0700      0.25201730
       3892.5400      0.23732820
       3894.0100      0.15692430
       3895.4800      0.17633630
       3896.9500      0.19460840
       3898.4200      0.21400720
       3899.8900      0.24194310
       3901.3600      0.26513150
       3902.8300      0.39049530
       3904.3000      0.34328620
       3905.7700      0.19755940
       3907.2400      0.16722590
       3908.7100      0.45679480
       3910.1800      0.56156190
       3911.6499      0.25760950
       3913.1200     0.099880340
       3914.5900      0.15693250
       3916.0600      0.40833780
       3917.5300      0.47783340
       3919.0000      0.26658160
       3920.4700      0.17128320
       3921.9400      0.26574310
       3923.4100      0.48377220
       3924.8800      0.40187070
       3926.3500      0.27118510
       3927.8200      0.25316880
       3929.2900      0.20466250
       3930.7600      0.23027960
       3932.2300      0.22195710
       3933.7000      0.23367240
       3935.1700      0.35992330
       3936.6400      0.39174380
       3938.1100      0.32999540
       3939.5800      0.34300540
       3941.0500      0.35071490
       3942.5200      0.32749870
       3943.9900      0.42838510
       3945.4600      0.39246120
       3946.9300      0.27552920
       3948.4000      0.30386580
       3949.8700      0.29207730
       3951.3400      0.26386800
       3952.8100      0.32940410
       3954.2800      0.28978910
       3955.7500      0.28168530
       3957.2200      0.35510720
       3958.6900      0.27735130
       3960.1600      0.22312060
       3961.6300      0.26149330
       3963.1000      0.32667360
       3964.5700      0.33202510
       3966.0400      0.34260040
       3967.5100      0.35631010
       3968.9800      0.29737960
       3970.4500      0.24477910
       3971.9200      0.26899010
       3973.3900      0.38208530
       3974.8600      0.49016510
       3976.3300      0.40657470
       3977.8000      0.28261760
       3979.2700      0.24212520
       3980.7400      0.24579330
       3982.2100      0.31988430
       3983.6800      0.33942430
       3985.1500      0.29010640
       3986.6200      0.30941810
       3988.0900      0.38219570
       3989.5600      0.37015020
       3991.0300      0.44919090
       3992.5000      0.51676930
       3993.9700      0.39955040
       3995.4400      0.27851660
       3996.9100      0.30234150
       3998.3800      0.30563620
       3999.8500      0.34998900
       4001.3200      0.39714340
       4002.7900      0.33867260
       4004.2600      0.39895080
       4005.7300      0.51145080
       4007.2000      0.49620260
       4008.6700      0.37380110
       4010.1400      0.28084050
       4011.6100      0.33873260
       4013.0800      0.42867630
       4014.5500      0.40718760
       4016.0200      0.38062420
       4017.4900      0.40230390
       4018.9600      0.36343250
       4020.4300      0.32460110
       4021.9000      0.41494500
       4023.3700      0.48601930
       4024.8400      0.46312450
       4026.3100      0.49691380
       4027.7800      0.46826800
       4029.2500      0.41931200
       4030.7200      0.39823870
       4032.1900      0.36447160
       4033.6600      0.51525150
       4035.1300      0.55843580
       4036.6000      0.43509890
       4038.0700      0.36475340
       4039.5400      0.38626360
       4041.0100      0.37862240
       4042.4800      0.24969680
       4043.9500      0.27931360
       4045.4200      0.34787480
       4046.8900      0.41308250
       4048.3600      0.59927910
       4049.8300      0.75943340
       4051.3000      0.65895580
       4052.7700      0.38838400
       4054.2400      0.32373030
       4055.7100      0.34592490
       4057.1800      0.31721450
       4058.6500      0.36880420
       4060.1200      0.38576770
       4061.5900      0.42924900
       4063.0600      0.44848330
       4064.5300      0.47665940
       4066.0000      0.49419130
       4067.4700      0.49206530
       4068.9400      0.38621060
       4070.4100      0.33944570
       4071.8800      0.41294810
       4073.3500      0.37425900
       4074.8200      0.38695230
       4076.2900      0.40603790
       4077.7600      0.34772970
       4079.2300      0.31882620
       4080.7000      0.36548180
       4082.1700      0.48685590
       4083.6400      0.43723140
       4085.1100      0.36102710
       4086.5800      0.40738880
       4088.0500      0.33925820
       4089.5200      0.29093340
       4090.9900      0.30970250
       4092.4600      0.26788180
       4093.9300      0.27628730
       4095.4000      0.34508130
       4096.8700      0.33729330
       4098.3400      0.30587720
       4099.8100      0.32892790
       4101.2800      0.33397870
       4102.7500      0.33435240
       4104.2200      0.36119510
       4105.6900      0.36311050
       4107.1600      0.32252250
       4108.6300      0.32948450
       4110.1000      0.28694050
       4111.5700      0.27057050
       4113.0400      0.37179730
       4114.5100      0.34604500
       4115.9800      0.23651690
       4117.4500      0.27653750
       4118.9200      0.34058470
       4120.3900      0.28493160
       4121.8600      0.28073640
       4123.3300      0.30036100
       4124.8000      0.31368370
       4126.2700      0.32768880
       4127.7400      0.29826730
       4129.2100      0.34878020
       4130.6800      0.37610890
       4132.1500      0.31530320
       4133.6200      0.26078240
       4135.0900      0.28820710
       4136.5600      0.29579630
       4138.0300      0.30933050
       4139.5000      0.28414260
       4140.9700      0.32775660
       4142.4400      0.33399780
       4143.9100      0.38790790
       4145.3800      0.40362520
       4146.8500      0.31234490
       4148.3200      0.35707900
       4149.7900      0.37050170
       4151.2600      0.32793330
       4152.7300      0.28356560
       4154.2000      0.25819310
       4155.6700      0.23252270
       4157.1400      0.33639140
       4158.6100      0.29382810
       4160.0800      0.19738210
       4161.5500      0.22002120
       4163.0200      0.32364130
       4164.4900      0.34748290
       4165.9600      0.22307380
       4167.4300      0.22061360
       4168.9000      0.26194750
       4170.3700      0.25835690
       4171.8400      0.32976850
       4173.3100      0.29800590
       4174.7800      0.22778840
       4176.2500      0.18949250
       4177.7200      0.18380150
       4179.1900      0.26070990
       4180.6600      0.22374420
       4182.1300      0.17279520
       4183.6000      0.25255310
       4185.0700      0.25841740
       4186.5400      0.23677700
       4188.0100      0.24324100
       4189.4800      0.21160190
       4190.9500      0.20371670
       4192.4200      0.21106550
       4193.8900      0.21484220
       4195.3600      0.26152890
       4196.8300      0.29869590
       4198.3000      0.27907880
       4199.7700      0.25354890
       4201.2400      0.23373610
       4202.7100      0.19666460
       4204.1800      0.24704680
       4205.6500      0.27172010
       4207.1200      0.24186550
       4208.5900      0.24893370
       4210.0600      0.22146230
       4211.5300      0.21394430
       4213.0000      0.24622220
       4214.4700      0.28057720
       4215.9400      0.26761880
       4217.4100      0.21574190
       4218.8800      0.19970470
       4220.3500      0.22649810
       4221.8200      0.23563110
       4223.2900      0.21369040
       4224.7599      0.23791520
       4226.2300      0.26400400
       4227.7000      0.27333430
       4229.1700      0.27379750
       4230.6400      0.24289170
       4232.1100      0.27937770
       4233.5800      0.29854510
       4235.0500      0.26387620
       4236.5200      0.29942050
       4237.9900      0.29433420
       4239.4600      0.21814320
       4240.9300      0.25495120
       4242.4000      0.30149150
       4243.8700      0.25984940
       4245.3400      0.27258760
       4246.8100      0.29272190
       4248.2800      0.28499560
       4249.7500      0.29575700
       4251.2200      0.23533910
       4252.6900      0.19694430
       4254.1600      0.26983550
       4255.6300      0.30785700
       4257.1000      0.30598880
       4258.5700      0.29011010
       4260.0400      0.26017700
       4261.5100      0.28601120
       4262.9800      0.31480470
       4264.4500      0.31152490
       4265.9200      0.27911840
       4267.3900      0.24079090
       4268.8600      0.26923700
       4270.3300      0.29100930
       4271.8000      0.27938680
       4273.2700      0.27317930
       4274.7400      0.25418900
       4276.2100      0.30074540
       4277.6800      0.33972800
       4279.1500      0.30722120
       4280.6200      0.30854760
       4282.0900      0.33370750
       4283.5600      0.32138040
       4285.0300      0.29667580
       4286.5000      0.28070090
       4287.9700      0.28823340
       4289.4400      0.29878830
       4290.9100      0.29956360
       4292.3800      0.31491790
       4293.8500      0.32174210
       4295.3200      0.27687850
       4296.7900      0.26620240
       4298.2600      0.30363370
       4299.7300      0.29166390
       4301.2000      0.30635630
       4302.6700      0.34785400
       4304.1400      0.31246910
       4305.6100      0.30186050
       4307.0800      0.30845330
       4308.5500      0.30781580
       4310.0200      0.31054810
       4311.4900      0.29214180
       4312.9600      0.27184320
       4314.4300      0.28022190
       4315.9000      0.29741780
       4317.3700      0.28246840
       4318.8400      0.26654100
       4320.3100      0.29205870
       4321.7800      0.32089430
       4323.2500      0.31305780
       4324.7200      0.29547520
       4326.1900      0.29645760
       4327.6600      0.28386170
       4329.1300      0.26613530
       4330.6000      0.28568940
       4332.0700      0.30078050
       4333.5400      0.30511540
       4335.0100      0.32221570
       4336.4800      0.30081880
       4337.9500      0.29000570
       4339.4200      0.29697310
       4340.8900      0.28942890
       4342.3600      0.27741650
       4343.8300      0.29593820
       4345.3000      0.28345690
       4346.7700      0.25656310
       4348.2400      0.26992040
       4349.7100      0.29545180
       4351.1800      0.29024470
       4352.6500      0.28446850
       4354.1200      0.25609190
       4355.5900      0.29620630
       4357.0600      0.37513900
       4358.5300      0.32496150
       4360.0000      0.30715780
       4361.4700      0.33573000
       4362.9400      0.27611070
