Units are: observed wavelength (Ang), observed flux (10^-15 erg/s/cm^2/Ang)
       4023.4361      0.15672520
       4024.1550     -0.60101190
       4024.8739      -2.2387900
       4025.5928     -0.76049020
       4026.3119     0.044793060
       4027.0308      -2.9683080
       4027.7497     -0.31693040
       4028.4686     -0.10215010
       4029.1876       1.5940380
       4029.9065      0.28519400
       4030.6255       2.4745190
       4031.3445     -0.65549220
       4032.0634     0.077804740
       4032.7823     -0.62675450
       4033.5012      0.12887800
       4034.2203      -3.4005470
       4034.9392      0.36116280
       4035.6581      0.79825450
       4036.3770     -0.18801600
       4037.0960       1.7383250
       4037.8149      0.33955120
       4038.5339       1.6913360
       4039.2528      -1.0817480
       4039.9718     -0.32817130
       4040.6907       1.4664250
       4041.4096      0.73632360
       4042.1287     -0.18345370
       4042.8476      0.52407640
       4043.5665       2.1948930
       4044.2854       2.6451780
       4045.0044    -0.072007830
       4045.7233      -1.3382490
       4046.4423      0.96336290
       4047.1612    -0.077690420
       4047.8802      0.42429460
       4048.5991      -1.6889720
       4049.3180     -0.37554540
       4050.0370     -0.35846730
       4050.7560     -0.11809350
       4051.4749    -0.090036330
       4052.1938       1.9095280
       4052.9128       1.5122390
       4053.6317     -0.46017640
       4054.3507      0.79657090
       4055.0696     -0.64596370
       4055.7886      -1.2134780
       4056.5075     -0.90618500
       4057.2264       1.8608800
       4057.9454      -1.1034870
       4058.6644      0.20429100
       4059.3833       1.7035620
       4060.1022     -0.61101390
       4060.8211       3.3829130
       4061.5401       1.3206290
       4062.2591     -0.74049380
       4062.9780     -0.80491290
       4063.6970     -0.90433830
       4064.4159      -1.5978970
       4065.1348     -0.87162380
       4065.8538     -0.61511060
       4066.5728      0.58839000
       4067.2917      0.75973310
       4068.0106       1.1769570
       4068.7295       1.1151070
       4069.4485    -0.061605330
       4070.1675     0.045352910
       4070.8864      -1.2039320
       4071.6053       1.5215570
       4072.3243       1.0507170
       4073.0432       3.0702960
       4073.7622     -0.80034440
       4074.4812      0.42759100
       4075.2001     -0.57597040
       4075.9190    -0.080821400
       4076.6379      -2.0376260
       4077.3569      -2.4713120
       4078.0759      0.69183860
       4078.7948    -0.023428900
       4079.5137       1.2318740
       4080.2327   -0.0060868230
       4080.9516       2.1610830
       4081.6706      0.11163590
       4082.3895       1.1213690
       4083.1085       1.0416160
       4083.8274     -0.44318420
       4084.5463     -0.70383610
       4085.2653      -1.1293110
       4085.9843       1.0645000
       4086.7032     -0.44009540
       4087.4221      0.54632780
       4088.1411     -0.72838680
       4088.8600       1.2669220
       4089.5790      0.22083470
       4090.2979      0.50432780
       4091.0169     -0.84613950
       4091.7358      0.40118270
       4092.4547     -0.64833260
       4093.1736     -0.77241230
       4093.8927      0.76043170
       4094.6116     -0.15367050
       4095.3305       1.1797520
       4096.0495     0.068032680
       4096.7684       3.3211560
       4097.4874       1.0767420
       4098.2063      0.29974380
       4098.9253      0.94367360
       4099.6442       2.9211910
       4100.3631       1.4632790
       4101.0820      0.18549160
       4101.8011     0.066756220
       4102.5200     -0.30727830
       4103.2389     -0.40149880
       4103.9578      0.18074530
       4104.6768       2.2196270
       4105.3958      0.61625420
       4106.1147       1.1716370
       4106.8337      -1.7862840
       4107.5526      -1.5744060
       4108.2715      -2.4922880
       4108.9904      0.37166220
       4109.7095      0.78693820
       4110.4284      -1.4087220
       4111.1473     -0.76953120
       4111.8662      -1.6896400
       4112.5852       1.4677340
       4113.3042     -0.90821460
       4114.0231     -0.16687520
       4114.7420      -1.6133660
       4115.4610      0.60142270
       4116.1799     -0.76843790
       4116.8988      0.38590590
       4117.6179      0.11110290
       4118.3368      -1.5341730
       4119.0557     -0.35516480
       4119.7746       1.0702230
       4120.4936      0.32513870
       4121.2126      0.17791730
       4121.9315     -0.18589490
       4122.6504     -0.94544670
       4123.3694     -0.70427570
       4124.0883     -0.32995380
       4124.8072       1.4300310
       4125.5262      -1.2467290
       4126.2452      0.20594860
       4126.9641      0.43253220
       4127.6830     -0.36123650
       4128.4020      0.39912360
       4129.1210     -0.89728880
       4129.8399     0.081897330
       4130.5588     -0.43055940
       4131.2778      0.54382160
       4131.9967     -0.99379150
       4132.7156      0.50425690
       4133.4346     -0.21093850
       4134.1536      0.98730070
       4134.8725     -0.49216810
       4135.5914      0.11770960
       4136.3103     -0.54792970
       4137.0294     -0.83156780
       4137.7483       2.0990870
       4138.4672       1.0508710
       4139.1862       1.2790700
       4139.9051      0.90663600
       4140.6240     -0.25239810
       4141.3430     -0.61172380
       4142.0620      0.19443050
       4142.7809     -0.45959990
       4143.4998       1.5845010
       4144.2187     -0.60344810
       4144.9378     -0.55709990
       4145.6567      0.61857070
       4146.3756      0.97644070
       4147.0945    -0.022889980
       4147.8135     0.057929230
       4148.5324       1.7916390
       4149.2514     -0.70811360
       4149.9704     -0.38555750
       4150.6893     -0.69846940
       4151.4082       1.3547520
       4152.1271     -0.71209120
       4152.8462     -0.30782670
       4153.5651  -0.00036055110
       4154.2840      0.61150580
       4155.0029      0.22569930
       4155.7219     -0.22122250
       4156.4408      0.53279470
       4157.1598    -0.048304460
       4157.8787      0.28330000
       4158.5977    -0.046649810
       4159.3166      0.19505640
       4160.0355      -1.2325080
       4160.7544     -0.70222310
       4161.4735      -1.1389770
       4162.1924     0.065940710
       4162.9113     -0.68028950
       4163.6303     -0.83044030
       4164.3492     -0.68016120
       4165.0682     -0.30915600
       4165.7871     -0.52529430
       4166.5061      -1.1363340
       4167.2250     -0.92848840
       4167.9439      -1.2044840
       4168.6628    -0.051709610
       4169.3819    -0.037655210
       4170.1008      0.10050550
       4170.8197     -0.55835940
       4171.5386      0.41442900
       4172.2576      0.56345840
       4172.9766      0.30854470
       4173.6955       1.0264430
       4174.4145      0.81333420
       4175.1334     -0.24176540
       4175.8523     -0.31904370
       4176.5712     0.010675920
       4177.2903      0.18850550
       4178.0092      0.77110990
       4178.7281    -0.077258660
       4179.4470    -0.028514080
       4180.1660      0.97858200
       4180.8850      0.60035250
       4181.6039   -0.0066639400
       4182.3228      0.97244690
       4183.0418       1.1999960
       4183.7607      0.23776530
       4184.4796     -0.27298060
       4185.1987     -0.58219360
       4185.9176      0.40267270
       4186.6365     -0.17565800
       4187.3554      0.67661710
       4188.0744     -0.31890510
       4188.7934      0.59175600
       4189.5123      0.33234340
       4190.2312      0.91090260
       4190.9502     -0.68752980
       4191.6691     -0.19697950
       4192.3880      0.74516380
       4193.1070      0.37983870
       4193.8260     0.025950120
       4194.5449      0.37428400
       4195.2638      0.61882140
       4195.9828     -0.58512040
       4196.7018      0.55631130
       4197.4207     -0.35525680
       4198.1396      0.62702840
       4198.8586      0.28863580
       4199.5775      0.34065530
       4200.2964     -0.57102630
       4201.0154    -0.070265970
       4201.7344      0.83549640
       4202.4533      0.46349110
       4203.1722     -0.17787330
       4203.8911    -0.053922240
       4204.6102      0.91606790
       4205.3291      0.40974600
       4206.0480      0.58453440
       4206.7670     -0.77283680
       4207.4859      0.40996000
       4208.2048     -0.65535960
       4208.9238     -0.33139690
       4209.6428     -0.52390320
       4210.3617      0.26454410
       4211.0806      0.44253490
       4211.7995      0.11312100
       4212.5186      0.11243500
       4213.2375     -0.22706830
       4213.9564      0.41705740
       4214.6753       1.1277530
       4215.3943      0.51191490
       4216.1132    -0.060349850
       4216.8322      0.49210770
       4217.5512     0.073577330
       4218.2701     -0.36608080
       4218.9890     -0.88808560
       4219.7079      0.11975250
       4220.4270     -0.42881800
       4221.1459      0.42305650
       4221.8648      0.71888100
       4222.5837      0.24927010
       4223.3027     -0.67774520
       4224.0216     -0.72905160
       4224.7406      0.24603950
       4225.4595    -0.043060270
       4226.1785      0.42485780
       4226.8974      0.52409410
       4227.6163      0.28196490
       4228.3354      0.61569380
       4229.0543    -0.020858120
       4229.7732     -0.78018370
       4230.4921      0.23435140
       4231.2111     0.085704860
       4231.9300    -0.077684520
       4232.6490      0.75326740
       4233.3679      0.33778640
       4234.0869     0.087390040
       4234.8058    -0.041326750
       4235.5247      0.11206620
       4236.2437     -0.51208740
       4236.9627     -0.42491960
       4237.6816      0.31596830
       4238.4005       1.4900340
       4239.1195      0.63682250
       4239.8384      0.83020800
       4240.5574      0.11140250
       4241.2763     -0.34913550
       4241.9953     0.049577440
       4242.7142     0.030886860
       4243.4331     -0.24826200
       4244.1521      0.38379150
       4244.8711      0.28886580
       4245.5900      0.40709420
       4246.3089      0.98864860
       4247.0278      0.10275550
       4247.7468      0.88473130
       4248.4658     -0.29791230
       4249.1847     0.045448030
       4249.9037      0.57586140
       4250.6226      0.56371410
       4251.3415     -0.71901550
       4252.0605      0.72518420
       4252.7795    -0.097314400
       4253.4984      0.11231240
       4254.2173     0.063236280
       4254.9362      0.62004240
       4255.6552      0.57893200
       4256.3742     -0.14094060
       4257.0931      0.47436780
       4257.8120     0.058512830
       4258.5310      0.23554600
       4259.2499      0.16534020
       4259.9689      0.54259340
       4260.6879     -0.10298680
       4261.4068     0.073772590
       4262.1257      0.29825020
       4262.8446      0.50903890
       4263.5636     -0.45263430
       4264.2826     -0.33910110
       4265.0015      0.22625100
       4265.7204     -0.11809580
       4266.4394     -0.51458810
       4267.1583     0.046316900
       4267.8773      0.97444620
       4268.5962      0.90536330
       4269.3152      0.72695260
       4270.0341     -0.21924050
       4270.7530      0.63298210
       4271.4720      0.33301940
       4272.1910      0.49580270
       4272.9099    -0.068035920
       4273.6288       1.1140980
       4274.3478      0.26081700
       4275.0667      0.65821710
       4275.7857      0.17156570
       4276.5046     -0.19730260
       4277.2236     -0.33726080
       4277.9425     -0.25198010
       4278.6614     -0.18286710
       4279.3803      0.56803110
       4280.0994      0.23671560
       4280.8183     0.093091800
       4281.5372      0.21677170
       4282.2562      0.39046790
       4282.9751       1.3511930
       4283.6941      0.54138480
       4284.4130      0.85502300
       4285.1320      0.44219700
       4285.8509      0.62835740
       4286.5698     -0.63848890
       4287.2887      0.45948000
       4288.0078      0.69132510
       4288.7267      0.59748880
       4289.4456     -0.23179360
       4290.1645     -0.12618190
       4290.8835      0.94433610
       4291.6025      0.44196170
       4292.3214      0.21647170
       4293.0404     -0.48348660
       4293.7593      0.91694320
       4294.4782     0.024428510
       4295.1971      0.57984020
       4295.9162     -0.23632430
       4296.6351      0.73171680
       4297.3540   0.00042304610
       4298.0729      0.31372240
       4298.7919      0.59139590
       4299.5109      0.54880920
       4300.2298      0.77008590
       4300.9487      0.51350570
       4301.6677       1.0782020
       4302.3866      0.91993260
       4303.1055      0.69435020
       4303.8246     -0.50917850
       4304.5435   -0.0059693160
       4305.2624      0.73994710
       4305.9813      0.16321280
       4306.7003      0.11485660
       4307.4193      0.82687290
       4308.1382      0.63839460
       4308.8571      0.18942090
       4309.5761   0.00030165650
       4310.2950      0.97481420
       4311.0139      0.17055890
       4311.7329      0.40945170
       4312.4519      0.78267910
       4313.1708      0.34242450
       4313.8897       1.0695340
       4314.6087      0.39968630
       4315.3277      0.48017850
       4316.0466      0.70432800
       4316.7655      0.61972080
       4317.4845     0.091958850
       4318.2034     -0.14353130
       4318.9223      0.11524900
       4319.6413      0.35852110
       4320.3603      0.26474760
       4321.0792      0.37611850
       4321.7981     -0.21075920
       4322.5170    -0.075688730
       4323.2361      0.12835800
       4323.9550      0.11424400
       4324.6739      0.69210650
       4325.3929    -0.024350110
       4326.1118     0.067439730
       4326.8307      0.32786620
       4327.5497      0.20802110
       4328.2687      0.26511740
       4328.9876      0.10355220
       4329.7065      0.23484540
       4330.4254       1.1292150
       4331.1445      0.28171320
       4331.8634      0.64680250
       4332.5823      0.84799250
       4333.3012      0.67138300
       4334.0202      0.48600500
       4334.7391      0.40958480
       4335.4581      0.27542730
       4336.1771      0.30747090
       4336.8960     0.050920480
       4337.6149      0.47182050
       4338.3338      0.87780130
       4339.0529      0.42374790
       4339.7718      0.73324110
       4340.4907    -0.042016420
       4341.2096      0.10478330
       4341.9286      0.41121000
       4342.6475     -0.15967890
       4343.3665     -0.33902060
       4344.0854      0.90352550
       4344.8044     0.082653770
       4345.5233      0.42420760
       4346.2422      0.58216970
       4346.9613      0.65118960
       4347.6802      0.22627980
       4348.3991      0.45079170
       4349.1180      0.32353570
       4349.8370      0.81118440
       4350.5559      0.54646150
       4351.2749      0.61578920
       4351.9938       1.3004330
       4352.7128      0.77507540
       4353.4317      0.67127270
       4354.1506      0.83874380
       4354.8696      0.65006460
       4355.5886      0.37950190
       4356.3075      0.55078050
       4357.0264      0.35976140
       4357.7453      0.41443140
       4358.4643      0.73036970
       4359.1833     0.054674840
       4359.9022     -0.22959570
       4360.6212      0.50381840
       4361.3401      0.39829600
       4362.0590      0.73556980
       4362.7780      0.34348240
       4363.4970      0.36776370
       4364.2159      0.36059030
       4364.9348      0.57724180
       4365.6537      0.64864030
       4366.3727      0.42940280
       4367.0917      0.78296870
       4367.8106      0.51611780
       4368.5295      0.34032840
       4369.2485      0.28814540
       4369.9674      0.60506540
       4370.6864      0.41229020
       4371.4054      0.83060250
       4372.1243      0.62542390
       4372.8432      0.96447720
       4373.5621      0.29416550
       4374.2811      0.68093150
       4375.0001      0.29992180
       4375.7190     0.076092900
       4376.4379     -0.14547260
       4377.1569     -0.86548020
       4377.8758      -1.2720320
       4378.5948     -0.20559210
       4379.3137      0.30905200
       4380.0327    -0.092888760
       4380.7516      0.66137680
       4381.4705      0.89944460
       4382.1895      0.71707190
       4382.9085      0.76879210
       4383.6274      0.72759970
       4384.3463      0.41262630
       4385.0653      0.75555650
       4385.7842   -0.0040326270
       4386.5032      0.13463340
       4387.2221     -0.50971150
       4387.9411      0.41526490
       4388.6600      0.51337740
       4389.3789      0.58755410
       4390.0978      0.44816010
       4390.8169      0.96684590
       4391.5358      0.71779830
       4392.2547      0.12428880
       4392.9737      0.52280150
       4393.6926      0.38294330
       4394.4116     0.074854310
       4395.1305      0.18091320
       4395.8495       1.0928640
       4396.5684      0.74870380
       4397.2873       1.0753780
       4398.0062      0.84308400
       4398.7253       1.0221760
       4399.4442      0.64360790
       4400.1631      0.80922350
       4400.8820      0.19325180
       4401.6010      0.61343810
       4402.3200     0.033444060
       4403.0389      0.56401550
       4403.7579      0.29707790
       4404.4768      0.58066250
       4405.1957      0.73368790
       4405.9146      0.53530680
       4406.6337      0.53271070
       4407.3526      0.31795650
       4408.0715      0.66412140
       4408.7904      0.30161650
       4409.5094      0.45214840
       4410.2284      0.29128210
       4410.9473      0.20658060
       4411.6662     -0.24533610
       4412.3852      0.21495510
       4413.1041      0.45511440
       4413.8230      0.53870370
       4414.5421     -0.16776800
       4415.2610      0.63909060
       4415.9799      0.30471370
       4416.6988      0.50217240
       4417.4178      0.57471910
       4418.1368      0.35508420
       4418.8557     0.054776220
       4419.5746      0.45362480
       4420.2936      0.68024410
       4421.0125      0.74982990
       4421.7314      0.46519070
       4422.4504      0.17786180
       4423.1694      0.15853820
       4423.8883      0.51180030
       4424.6072      0.40317970
       4425.3262     0.092524200
       4426.0452      0.73936230
       4426.7641      0.71887520
       4427.4830      0.45634650
       4428.2020      0.75198980
       4428.9209      0.87442290
       4429.6398      0.45597120
       4430.3588      0.74784270
       4431.0778      0.80444270
       4431.7967      0.99290920
       4432.5156      0.40985580
       4433.2345      0.31370260
       4433.9536     0.072972950
       4434.6725      0.25098490
       4435.3914      0.64078740
       4436.1104      0.45057700
       4436.8293      0.50132100
       4437.5482      0.52205130
       4438.2672      0.61919840
       4438.9862      0.67187070
       4439.7051      0.27804710
       4440.4240      0.37841390
       4441.1429      0.32105410
       4441.8620      0.20746900
       4442.5809      0.53322760
       4443.2998      0.29666120
       4444.0187      0.82973530
       4444.7377     0.084047330
       4445.4566      0.30449320
       4446.1756      0.76729080
       4446.8946      0.89511250
       4447.6135      0.83749620
       4448.3324      0.34074300
       4449.0513      0.32836240
       4449.7704      0.84255080
       4450.4893      0.62438190
       4451.2082      0.40362580
       4451.9271      0.36502920
       4452.6461       1.2508910
       4453.3650      0.82345870
       4454.0840      0.74306020
       4454.8029      0.68287140
       4455.5219      0.25496210
       4456.2408      0.42146760
