Units are: observed wavelength (Ang), observed flux (10^-15 erg/s/cm^2/Ang)
       3500.3388       2.0679780
       3502.2811       2.0456520
       3504.2232       2.0592750
       3506.1653       2.0635860
       3508.1075       2.0743750
       3510.0497       2.0893140
       3511.9919       2.1197810
       3513.9340       2.1201640
       3515.8761       2.1390820
       3517.8183       2.1547460
       3519.7605       2.1709250
       3521.7027       2.1894650
       3523.6448       2.1771280
       3525.5869       2.1752170
       3527.5292       2.1602950
       3529.4713       2.1661150
       3531.4134       2.1526040
       3533.3556       2.1556190
       3535.2978       2.1397380
       3537.2400       2.1755110
       3539.1821       2.2025060
       3541.1242       2.1563670
       3543.0665       2.1253130
       3545.0086       2.1326680
       3546.9508       2.1413820
       3548.8929       2.1338450
       3550.8350       2.1386220
       3552.7773       2.1281010
       3554.7194       2.1354030
       3556.6616       2.1170390
       3558.6037       2.0962600
       3560.5459       2.1208790
       3562.4881       2.1449820
       3564.4302       2.1347030
       3566.3723       2.1120460
       3568.3146       2.1326600
       3570.2567       2.1619780
       3572.1989       2.1534150
       3574.1410       2.1409710
       3576.0832       2.1261620
       3578.0254       2.1084290
       3579.9675       2.0961630
       3581.9097       2.0899520
       3583.8518       2.0919750
       3585.7940       2.0909340
       3587.7362       2.0609800
       3589.6783       2.0650740
       3591.6204       2.0612210
       3593.5627       2.0439460
       3595.5048       2.0059940
       3597.4470       1.9996260
       3599.3891       1.9973640
       3601.3313       1.9745240
       3603.2735       1.9468750
       3605.2156       1.9417110
       3607.1578       1.9257050
       3609.1000       1.9256380
       3611.0421       1.9243160
       3612.9843       1.8915300
       3614.9264       1.8524680
       3616.8686       1.8299400
       3618.8108       1.8440840
       3620.7529       1.8475910
       3622.6951       1.8360160
       3624.6372       1.8292250
       3626.5794       1.8381350
       3628.5216       1.8779970
       3630.4637       1.9136710
       3632.4059       1.9070420
       3634.3481       1.9129530
       3636.2902       1.9218570
       3638.2324       1.9414880
       3640.1745       1.9950360
       3642.1167       2.0147560
       3644.0589       2.0441640
       3646.0010       2.0963960
       3647.9432       2.1283070
       3649.8853       2.1203100
       3651.8276       2.1463620
       3653.7697       2.1762550
       3655.7118       2.1684490
       3657.6540       2.1670070
       3659.5962       2.2082570
       3661.5383       2.2454210
       3663.4805       2.2450370
       3665.4226       2.2453030
       3667.3649       2.2452270
       3669.3070       2.2830160
       3671.2491       2.3091100
       3673.1913       2.3027180
       3675.1334       2.3100110
       3677.0757       2.3055900
       3679.0178       2.3041340
       3680.9599       2.2829370
       3682.9021       2.2374160
       3684.8443       2.2381390
       3686.7864       2.2587480
       3688.7286       2.2522030
       3690.6707       2.2167510
       3692.6130       2.1844060
       3694.5551       2.1761280
       3696.4972       2.1445510
       3698.4394       2.1026340
       3700.3816       2.0714200
       3702.3238       2.0452010
       3704.2659       1.9986100
       3706.2080       1.9590850
       3708.1502       1.9254300
       3710.0924       1.9192310
       3712.0346       1.8939300
       3713.9767       1.8666140
       3715.9188       1.8212130
       3717.8611       1.8040650
       3719.8032       1.8030090
       3721.7453       1.7868200
       3723.6875       1.7934690
       3725.6297       1.8134190
       3727.5719       1.8055660
       3729.5140       1.8310750
       3731.4561       1.8399040
       3733.3983       1.8477300
       3735.3405       1.8713040
       3737.2827       1.8786410
       3739.2248       1.8809380
       3741.1669       1.8896570
       3743.1092       1.8885650
       3745.0513       1.8874360
       3746.9934       1.8837090
       3748.9356       1.8914830
       3750.8778       1.8697680
       3752.8200       1.8527300
       3754.7621       1.8237120
       3756.7042       1.8064130
       3758.6465       1.8024730
       3760.5886       1.7634440
       3762.5308       1.7204040
       3764.4729       1.7116440
       3766.4150       1.7150010
       3768.3573       1.6606120
       3770.2994       1.6293630
       3772.2416       1.6275050
       3774.1837       1.6077210
       3776.1259       1.6032850
       3778.0681       1.5631720
       3780.0102       1.5286150
       3781.9523       1.5057020
       3783.8946       1.4867730
       3785.8367       1.4947360
       3787.7789       1.4981750
       3789.7210       1.4977980
       3791.6632       1.5203500
       3793.6054       1.5273250
       3795.5475       1.5519800
       3797.4897       1.5868530
       3799.4318       1.6026790
       3801.3740       1.6199440
       3803.3162       1.6290060
       3805.2583       1.6332240
       3807.2004       1.6469220
       3809.1427       1.6767260
       3811.0848       1.6908030
       3813.0270       1.6992230
       3814.9691       1.7034900
       3816.9113       1.7119590
       3818.8535       1.7168000
       3820.7956       1.7428480
       3822.7378       1.7909420
       3824.6799       1.8124410
       3826.6221       1.8400990
       3828.5643       1.8807150
       3830.5064       1.9187650
       3832.4486       1.9588380
       3834.3908       1.9835850
       3836.3329       2.0215410
       3838.2751       2.0636210
       3840.2172       2.0818320
       3842.1594       2.1294780
       3844.1016       2.1704060
       3846.0437       2.1899550
       3847.9859       2.1910870
       3849.9281       2.1940350
       3851.8702       2.1890840
       3853.8124       2.1988270
       3855.7545       2.2260340
       3857.6967       2.2505520
       3859.6389       2.2515740
       3861.5810       2.2518490
       3863.5232       2.2815860
       3865.4653       2.2903210
       3867.4076       2.2743320
       3869.3497       2.2796860
       3871.2918       2.2962890
       3873.2340       2.3096450
       3875.1762       2.3147490
       3877.1183       2.3119970
       3879.0605       2.3193200
       3881.0026       2.3405980
       3882.9449       2.3605790
       3884.8870       2.3720810
       3886.8291       2.3835590
       3888.7713       2.3812030
       3890.7134       2.3729210
       3892.6557       2.3457180
       3894.5978       2.3480240
       3896.5399       2.3612140
       3898.4821       2.3511050
       3900.4243       2.3402640
       3902.3664       2.3260680
       3904.3086       2.3130420
       3906.2507       2.3209350
       3908.1930       2.3401680
       3910.1351       2.3559000
       3912.0772       2.3594350
       3914.0194       2.3451780
       3915.9615       2.3328210
       3917.9038       2.3350770
       3919.8459       2.3346020
       3921.7880       2.3405700
       3923.7302       2.3612550
       3925.6724       2.3447550
       3927.6146       2.3118160
       3929.5567       2.2945770
       3931.4988       2.2835210
       3933.4411       2.2871860
       3935.3832       2.3082310
       3937.3253       2.3263380
       3939.2675       2.3352480
       3941.2097       2.3388430
       3943.1519       2.3540240
       3945.0940       2.3597580
       3947.0361       2.3247770
       3948.9783       2.2529130
       3950.9205       2.2255510
       3952.8627       2.2509060
       3954.8048       2.2652980
       3956.7469       2.2733170
       3958.6892       2.2815230
       3960.6313       2.2780320
       3962.5734       2.2510450
       3964.5156       2.2099750
       3966.4578       2.1776870
       3968.4000       2.1516630
       3970.3421       2.1311460
       3972.2842       2.1285500
       3974.2265       2.1366380
       3976.1686       2.1133240
       3978.1108       2.0901470
       3980.0529       2.0828850
       3981.9950       2.0681260
       3983.9373       2.0187570
       3985.8794       1.9717600
       3987.8216       1.9683340
       3989.7637       1.9682210
       3991.7059       1.9655650
       3993.6481       1.9831720
       3995.5902       2.0047630
       3997.5323       2.0117670
       3999.4746       1.9935030
       4001.4167       1.9693240
       4003.3589       1.9621880
       4005.3010       1.9644040
       4007.2432       1.9835650
       4009.1854       1.9866780
       4011.1275       1.9649710
       4013.0697       1.9722240
       4015.0118       1.9981420
       4016.9540       1.9986860
       4018.8962       2.0031940
       4020.8383       2.0025530
       4022.7804       2.0126510
       4024.7227       2.0387040
       4026.6648       2.0603330
       4028.6070       2.0611910
       4030.5491       2.0701680
       4032.4913       2.0814420
       4034.4335       2.0735730
       4036.3756       2.0744620
       4038.3178       2.1080980
       4040.2599       2.1155470
       4042.2021       2.1173810
       4044.1443       2.1433620
       4046.0864       2.1407560
       4048.0286       2.1410650
       4049.9708       2.1500620
       4051.9129       2.1423100
       4053.8551       2.1539490
       4055.7972       2.1653230
       4057.7394       2.1474490
       4059.6816       2.1471530
       4061.6237       2.1765500
       4063.5659       2.1691580
       4065.5081       2.1338670
       4067.4502       2.1095750
       4069.3924       2.1200640
       4071.3345       2.1158510
       4073.2767       2.1074700
       4075.2189       2.0852460
       4077.1610       2.0812120
       4079.1032       2.0871760
       4081.0453       2.0811570
       4082.9876       2.0716620
       4084.9297       2.0723280
       4086.8718       2.0566730
       4088.8140       2.0566110
       4090.7562       2.0538320
       4092.6983       2.0432650
       4094.6405       2.0353210
       4096.5826       2.0448240
       4098.5249       2.0521770
       4100.4670       2.0312780
       4102.4091       2.0163530
       4104.3513       1.9992520
       4106.2934       1.9699250
       4108.2357       1.9600440
       4110.1778       1.9676510
       4112.1199       1.9494720
       4114.0621       1.9315130
       4116.0043       1.9283680
       4117.9464       1.9119230
       4119.8886       1.8970160
       4121.8307       1.9203700
       4123.7730       1.9409830
       4125.7151       1.9181540
       4127.6572       1.9010520
       4129.5994       1.9188020
       4131.5415       1.9323900
       4133.4838       1.9515980
       4135.4259       1.9710280
       4137.3680       1.9844430
       4139.3102       1.9920920
       4141.2524       2.0213210
       4143.1946       2.0240510
       4145.1367       2.0224320
       4147.0788       2.0617870
       4149.0211       2.0740200
       4150.9632       2.0769440
       4152.9053       2.0923240
       4154.8475       2.0927440
       4156.7897       2.0883750
       4158.7319       2.0901370
       4160.6740       2.0834180
       4162.6161       2.0801290
       4164.5583       2.0838020
       4166.5005       2.0912290
       4168.4427       2.0851220
       4170.3848       2.0487220
       4172.3269       2.0281910
       4174.2692       2.0339010
       4176.2113       2.0401020
       4178.1534       2.0126800
       4180.0956       1.9904130
       4182.0378       1.9844860
       4183.9800       1.9696190
       4185.9221       1.9502860
       4187.8642       1.9410450
       4189.8065       1.9346660
       4191.7486       1.9260600
       4193.6908       1.8935060
       4195.6329       1.8780200
       4197.5750       1.8845730
       4199.5173       1.8865400
       4201.4594       1.8870640
       4203.4016       1.8746950
       4205.3437       1.8543430
       4207.2859       1.8511000
       4209.2281       1.8504920
       4211.1702       1.8514000
       4213.1123       1.8470980
       4215.0546       1.8520060
       4216.9967       1.8554330
       4218.9389       1.8442320
       4220.8810       1.8342160
       4222.8231       1.8259430
       4224.7654       1.8190920
       4226.7075       1.8182830
       4228.6497       1.8143470
       4230.5918       1.8153530
       4232.5340       1.8087450
       4234.4762       1.7995840
       4236.4183       1.8143850
       4238.3604       1.8143930
       4240.3027       1.8035250
       4242.2448       1.7999080
       4244.1870       1.8164720
       4246.1291       1.8206540
       4248.0713       1.8133440
       4250.0135       1.8028960
       4251.9556       1.8074620
       4253.8978       1.8502680
       4255.8399       1.8548090
       4257.7821       1.8458280
       4259.7243       1.8578050
       4261.6664       1.8594730
       4263.6086       1.8628670
       4265.5508       1.8690470
       4267.4929       1.8715680
       4269.4351       1.8807130
       4271.3772       1.8685510
       4273.3194       1.8532530
       4275.2616       1.8525210
       4277.2037       1.8281630
       4279.1459       1.8192870
       4281.0881       1.8298960
       4283.0302       1.8166180
       4284.9724       1.7977000
       4286.9145       1.7889060
       4288.8567       1.7668610
       4290.7989       1.7420360
       4292.7410       1.7296340
       4294.6832       1.7310550
       4296.6253       1.7250060
       4298.5676       1.6914350
       4300.5097       1.6597920
       4302.4518       1.6352580
       4304.3940       1.6036560
       4306.3362       1.5766930
       4308.2783       1.5627800
       4310.2205       1.5613430
       4312.1626       1.5459970
       4314.1049       1.5247180
       4316.0470       1.5300040
       4317.9891       1.5329410
       4319.9313       1.5254590
       4321.8734       1.5392780
       4323.8157       1.5375970
       4325.7578       1.5195420
       4327.6999       1.5256700
       4329.6421       1.5549920
       4331.5843       1.5810600
       4333.5264       1.5832250
       4335.4686       1.5735000
       4337.4107       1.5912240
       4339.3530       1.6184720
       4341.2951       1.6293130
       4343.2372       1.6366920
       4345.1794       1.6377220
       4347.1215       1.6435730
       4349.0638       1.6584880
       4351.0059       1.6698140
       4352.9480       1.6840830
       4354.8902       1.7097920
       4356.8324       1.7401060
       4358.7746       1.7434880
       4360.7167       1.7343030
       4362.6588       1.7447740
       4364.6011       1.7461310
       4366.5432       1.7370660
       4368.4853       1.7564630
       4370.4275       1.7811740
       4372.3697       1.7549150
       4374.3119       1.7350380
       4376.2540       1.7314310
       4378.1961       1.7350650
       4380.1383       1.7424430
       4382.0805       1.7656710
       4384.0227       1.7760520
       4385.9648       1.7681850
       4387.9069       1.7700550
       4389.8492       1.7719030
       4391.7913       1.7558930
       4393.7334       1.7518870
       4395.6756       1.7565930
       4397.6178       1.7611130
       4399.5600       1.7603840
       4401.5021       1.7567630
       4403.4442       1.7551200
       4405.3865       1.7660880
       4407.3286       1.7748830
       4409.2708       1.7869880
       4411.2129       1.7971960
       4413.1550       1.7949160
       4415.0973       1.7878480
       4417.0394       1.7849000
       4418.9816       1.7842620
       4420.9237       1.7988720
       4422.8659       1.8196030
       4424.8081       1.8190790
       4426.7502       1.8142010
       4428.6923       1.8155420
       4430.6346       1.8254400
       4432.5767       1.8291410
       4434.5189       1.8365720
       4436.4610       1.8351620
       4438.4031       1.8432800
       4440.3454       1.8683060
       4442.2875       1.8778990
       4444.2297       1.8787650
       4446.1718       1.8960380
       4448.1140       1.9029530
       4450.0562       1.9000460
       4451.9983       1.9007980
       4453.9404       1.9017380
       4455.8827       1.9085020
       4457.8248       1.9203760
       4459.7670       1.9173290
       4461.7091       1.9111380
       4463.6513       1.9069150
       4465.5935       1.9016950
       4467.5356       1.9030690
       4469.4778       1.9056900
       4471.4199       1.9134140
       4473.3621       1.9200240
       4475.3043       1.9107840
       4477.2464       1.8968690
       4479.1886       1.9023660
       4481.1308       1.8978770
       4483.0729       1.9061980
       4485.0151       1.9214840
       4486.9572       1.9126150
       4488.8994       1.9066600
       4490.8416       1.8925750
       4492.7837       1.8768280
       4494.7259       1.8748040
       4496.6681       1.8869530
       4498.6102       1.8815660
       4500.5524       1.8690130
       4502.4945       1.8617710
       4504.4367       1.8594260
       4506.3789       1.8590010
       4508.3210       1.8714930
       4510.2632       1.8587790
       4512.2053       1.8493820
       4514.1476       1.8702360
       4516.0897       1.8853820
       4518.0318       1.8773730
       4519.9740       1.8709160
       4521.9162       1.8625750
       4523.8583       1.8588860
       4525.8005       1.8664150
       4527.7426       1.8672780
       4529.6849       1.8790580
       4531.6270       1.8651630
       4533.5691       1.8521370
       4535.5113       1.8643460
       4537.4534       1.8665570
       4539.3957       1.8867130
       4541.3378       1.9050530
       4543.2799       1.8894430
       4545.2221       1.8809240
       4547.1643       1.8896800
       4549.1064       1.8933770
       4551.0486       1.8828050
       4552.9907       1.8742510
       4554.9330       1.8631650
       4556.8751       1.8584460
       4558.8172       1.8558460
       4560.7594       1.8529590
       4562.7015       1.8488480
       4564.6438       1.8393690
       4566.5859       1.8283880
       4568.5280       1.8140410
       4570.4702       1.8237220
       4572.4124       1.8242350
       4574.3546       1.8021340
       4576.2967       1.7796400
       4578.2388       1.7660130
       4580.1811       1.7666230
       4582.1232       1.7660300
       4584.0653       1.7735800
       4586.0075       1.7702390
       4587.9497       1.7599890
       4589.8919       1.7581520
       4591.8340       1.7506410
       4593.7761       1.7550930
       4595.7183       1.7484640
       4597.6605       1.7426470
       4599.6027       1.7282260
       4601.5448       1.7167500
       4603.4869       1.7212910
       4605.4292       1.7203760
       4607.3713       1.7244840
       4609.3134       1.7274700
       4611.2556       1.7133060
       4613.1978       1.6967210
       4615.1400       1.6998790
       4617.0821       1.6932260
       4619.0242       1.6759710
       4620.9665       1.6597030
       4622.9086       1.6617300
       4624.8508       1.6646180
       4626.7929       1.6430130
       4628.7350       1.6187190
       4630.6773       1.6127730
       4632.6194       1.6122470
       4634.5616       1.5953780
       4636.5037       1.5748440
       4638.4459       1.5619230
       4640.3881       1.5440890
       4642.3302       1.5378650
       4644.2723       1.5452540
       4646.2146       1.5337490
       4648.1567       1.5149160
       4650.0989       1.5097740
       4652.0410       1.5112980
       4653.9831       1.5100130
       4655.9254       1.5029190
       4657.8675       1.5060800
       4659.8097       1.5035480
       4661.7518       1.4924740
       4663.6940       1.4912570
       4665.6362       1.4944170
       4667.5783       1.5040580
       4669.5204       1.5166850
