Units are: observed wavelength (Ang), observed flux (10^-15 erg/s/cm^2/Ang)
       3328.0000      0.16944590
       3329.9400      0.16081620
       3331.8800     0.090128690
       3333.8200     0.033488090
       3335.7600     0.079769020
       3337.7000     0.079405840
       3339.6400      0.13476050
       3341.5800      0.10498400
       3343.5200     0.010825820
       3345.4600     0.098391730
       3347.4000      0.15797840
       3349.3400      0.16225370
       3351.2800     0.091153870
       3353.2200     0.038101850
       3355.1600     0.037778060
       3357.1000     0.072387290
       3359.0400      0.10052570
       3360.9800     0.091129910
       3362.9200     0.098333340
       3364.8600      0.15595420
       3366.8000     0.020732170
       3368.7400     0.022688380
       3370.6800     0.040564570
       3372.6200     0.021600980
       3374.5600     0.036590230
       3376.5000     0.046273940
       3378.4400      0.10859600
       3380.3800      0.13829490
       3382.3200      0.12397210
       3384.2600      0.12185140
       3386.2000      0.16168070
       3388.1400     0.035295470
       3390.0800    -0.072065950
       3392.0200      0.11766540
       3393.9600      0.20154070
       3395.9000      0.12063590
       3397.8400      0.11538180
       3399.7800      0.16285550
       3401.7200      0.13274550
       3403.6600     0.046017560
       3405.6000      0.12762220
       3407.5400      0.12550530
       3409.4800     0.088267760
       3411.4200      0.14595170
       3413.3600      0.10244850
       3415.3000      0.16711310
       3417.2400      0.13546100
       3419.1800      0.10643850
       3421.1200      0.17187590
       3423.0600      0.13210990
       3425.0000     0.044541830
       3426.9400     0.075076380
       3428.8800     0.048496600
       3430.8200     0.059338520
       3432.7600      0.14561470
       3434.7000      0.11548990
       3436.6400      0.10678960
       3438.5800      0.20244280
       3440.5200      0.22861130
       3442.4600     0.080484750
       3444.4000     0.094188790
       3446.3400      0.11353300
       3448.2800      0.22578810
       3450.2200      0.12804390
       3452.1600     0.096601780
       3454.1000      0.10628380
       3456.0400     0.096775790
       3457.9800      0.13843280
       3459.9200      0.12949080
       3461.8600      0.18376430
       3463.8000      0.18015950
       3465.7400      0.11486330
       3467.6800      0.11447040
       3469.6200      0.16727190
       3471.5600      0.14195820
       3473.5000      0.13706650
       3475.4400      0.10772910
       3477.3800      0.10681950
       3479.3200      0.14604090
       3481.2600      0.16592530
       3483.2000     0.093682990
       3485.1400     0.092416170
       3487.0800     0.096488770
       3489.0200      0.10404290
       3490.9600      0.20897430
       3492.9000      0.19838530
       3494.8400      0.15047560
       3496.7800     0.078851520
       3498.7200     0.095908710
       3500.6600     0.097171110
       3502.6000     0.093713440
       3504.5400      0.12525350
       3506.4800      0.15197000
       3508.4200     0.085107700
       3510.3600   -0.0014067210
       3512.3000     0.025082100
       3514.2400     0.060344240
       3516.1800      0.18497260
       3518.1200      0.14601100
       3520.0600      0.18384920
       3522.0000      0.17346500
       3523.9400      0.11961060
       3525.8800      0.18446110
       3527.8200      0.11661870
       3529.7600     0.042239890
       3531.7000     0.069022820
       3533.6400      0.10327860
       3535.5800      0.12495610
       3537.5200     0.098309840
       3539.4600     0.089507090
       3541.4000      0.13936400
       3543.3400      0.18785710
       3545.2800      0.11306410
       3547.2200      0.15428660
       3549.1600      0.14273820
       3551.1000     0.097905770
       3553.0400     0.074223760
       3554.9800      0.16185520
       3556.9200      0.10743660
       3558.8600     0.069237780
       3560.8000      0.12896270
       3562.7400      0.12678690
       3564.6800      0.11220540
       3566.6200     0.092112090
       3568.5600      0.16485600
       3570.5000      0.12059590
       3572.4400     0.067327660
       3574.3800      0.15767340
       3576.3200      0.21733680
       3578.2600      0.13063910
       3580.2000      0.15366560
       3582.1400     0.097690190
       3584.0800      0.15482820
       3586.0200      0.19986100
       3587.9600      0.14932290
       3589.9000      0.14154280
       3591.8400      0.12007000
       3593.7800      0.18681870
       3595.7200      0.12063830
       3597.6600      0.16944140
       3599.6000      0.21125990
       3601.5400     0.093748840
       3603.4800     0.080796980
       3605.4200      0.14349400
       3607.3600      0.22377470
       3609.3000      0.11863310
       3611.2400      0.11705170
       3613.1800      0.12881140
       3615.1200      0.15027060
       3617.0600      0.19024460
       3619.0000      0.17605290
       3620.9400      0.13565580
       3622.8800      0.21336100
       3624.8200      0.18907060
       3626.7600      0.12545030
       3628.7000     0.081758290
       3630.6400      0.15935810
       3632.5800      0.11841050
       3634.5200      0.18314860
       3636.4600      0.18702980
       3638.4000      0.15061520
       3640.3400      0.19019100
       3642.2800     0.069068780
       3644.2200     0.099327680
       3646.1600      0.10935940
       3648.1000      0.14128290
       3650.0400      0.20049540
       3651.9800      0.22245570
       3653.9200      0.12668100
       3655.8600      0.11733750
       3657.8000      0.21356510
       3659.7400      0.18389880
       3661.6800      0.16524980
       3663.6200      0.18008970
       3665.5600      0.17169930
       3667.5000      0.16119520
       3669.4400      0.16495870
       3671.3800      0.15248380
       3673.3200      0.17693540
       3675.2600      0.23584070
       3677.2000      0.22700750
       3679.1400      0.19726850
       3681.0800      0.16051660
       3683.0200      0.18930060
       3684.9600      0.20964260
       3686.9000      0.21468410
       3688.8400      0.21502400
       3690.7800      0.18849190
       3692.7200      0.16646210
       3694.6600      0.18716200
       3696.6000      0.23678390
       3698.5400      0.26993520
       3700.4800      0.29741470
       3702.4200      0.24415160
       3704.3600      0.21078630
       3706.3000      0.16785590
       3708.2400      0.15345230
       3710.1800      0.19497140
       3712.1200      0.19521870
       3714.0600      0.20798380
       3716.0000      0.22147580
       3717.9400      0.31427400
       3719.8800      0.29604070
       3721.8200      0.25571780
       3723.7600      0.24198830
       3725.7000      0.23064390
       3727.6400      0.22230370
       3729.5800      0.20647530
       3731.5200      0.22364810
       3733.4600      0.23240440
       3735.4000      0.26811010
       3737.3400      0.17139470
       3739.2800      0.13938880
       3741.2200      0.16646070
       3743.1600     0.069212450
       3745.1000     -0.10093250
       3747.0400     -0.20005600
       3748.9800    -0.011533430
       3750.9200      0.16301360
       3752.8600      0.12594840
       3754.8000      0.13459660
       3756.7400      0.20100850
       3758.6800      0.17184970
       3760.6200      0.24011990
       3762.5600      0.21620740
       3764.5000      0.20195190
       3766.4400      0.18697040
       3768.3800      0.15197910
       3770.3200      0.19452380
       3772.2600      0.13736100
       3774.2000      0.14685210
       3776.1400      0.19334390
       3778.0800      0.18242520
       3780.0200      0.13157820
       3781.9600      0.20662790
       3783.9000      0.22007810
       3785.8400      0.14974700
       3787.7800      0.14987660
       3789.7200      0.12928250
       3791.6600      0.17153540
       3793.6000      0.19727240
       3795.5400      0.17229170
       3797.4800      0.17592580
       3799.4200      0.14846990
       3801.3600      0.12757670
       3803.3000      0.13646720
       3805.2400      0.13839160
       3807.1800      0.12202830
       3809.1200      0.15269030
       3811.0600      0.19389610
       3813.0000      0.11652000
       3814.9400      0.13720500
       3816.8800      0.10461260
       3818.8200     0.075041140
       3820.7600     0.085866500
       3822.7000     0.075923480
       3824.6400     0.093913420
       3826.5800      0.12429470
       3828.5200      0.12124490
       3830.4600     0.093107410
       3832.4000     0.096619080
       3834.3400     0.098391470
       3836.2800      0.10514950
       3838.2200      0.11901460
       3840.1600     0.093548580
       3842.1000     0.092201370
       3844.0400      0.13659700
       3845.9800      0.12826100
       3847.9200      0.10242030
       3849.8600      0.13388340
       3851.8000      0.14822820
       3853.7400      0.13634910
       3855.6800      0.15267400
       3857.6200      0.17616170
       3859.5600      0.13398510
       3861.5000      0.13202640
       3863.4400      0.16832890
       3865.3800      0.16715970
       3867.3200      0.18671070
       3869.2600      0.17468100
       3871.2000      0.20565410
       3873.1400      0.23906390
       3875.0800      0.21236380
       3877.0200      0.20829620
       3878.9600      0.20783160
       3880.9000      0.24520200
       3882.8400      0.27115560
       3884.7800      0.25656280
       3886.7200      0.24191230
       3888.6600      0.26185240
       3890.6000      0.26760650
       3892.5400      0.26215530
       3894.4800      0.30101250
       3896.4200      0.32333740
       3898.3600      0.33373410
       3900.3000      0.34240640
       3902.2400      0.37045820
       3904.1800      0.33617740
       3906.1200      0.31944000
       3908.0600      0.36851420
       3910.0000      0.35816330
       3911.9400      0.32660390
       3913.8800      0.37594210
       3915.8200      0.36343110
       3917.7599      0.38395860
       3919.7000      0.36364240
       3921.6400      0.38425650
       3923.5800      0.43745510
       3925.5200      0.46672640
       3927.4600      0.41927390
       3929.4000      0.42170070
       3931.3400      0.48888420
       3933.2800      0.45389550
       3935.2200      0.45287240
       3937.1600      0.49678420
       3939.1000      0.47216310
       3941.0400      0.50695510
       3942.9800      0.47939000
       3944.9200      0.48519010
       3946.8600      0.48465370
       3948.8000      0.50015870
       3950.7400      0.53338310
       3952.6800      0.49639030
       3954.6200      0.51021310
       3956.5600      0.51950210
       3958.5000      0.53658350
       3960.4400      0.51934060
       3962.3800      0.50713710
       3964.3200      0.50056800
       3966.2600      0.54112370
       3968.2000      0.58967300
       3970.1400      0.58964190
       3972.0800      0.57843450
       3974.0200      0.60873720
       3975.9600      0.62112130
       3977.9000      0.59622480
       3979.8400      0.60298810
       3981.7800      0.59671510
       3983.7200      0.55422580
       3985.6600      0.48081890
       3987.6000      0.50584760
       3989.5400      0.49146630
       3991.4800      0.52650650
       3993.4200      0.53782120
       3995.3600      0.55463250
       3997.3000      0.57974180
       3999.2400      0.56952410
       4001.1800      0.54723730
       4003.1200      0.52734270
       4005.0600      0.54711630
       4007.0000      0.58947930
       4008.9400      0.53385750
       4010.8800      0.51950690
       4012.8200      0.57104210
       4014.7600      0.52243150
       4016.7000      0.48971300
       4018.6400      0.54806260
       4020.5800      0.55571230
       4022.5200      0.55798130
       4024.4600      0.54196230
       4026.4000      0.53624460
       4028.3400      0.51943810
       4030.2800      0.50380830
       4032.2200      0.56039370
       4034.1600      0.52102340
       4036.1000      0.47432290
       4038.0400      0.49064960
       4039.9800      0.51300870
       4041.9200      0.52664160
       4043.8600      0.52637400
       4045.8000      0.54990020
       4047.7400      0.54804170
       4049.6800      0.51926930
       4051.6200      0.51558940
       4053.5600      0.51224340
       4055.5000      0.48256900
       4057.4400      0.49000160
       4059.3800      0.50099490
       4061.3200      0.49559260
       4063.2600      0.46839720
       4065.2000      0.45011480
       4067.1400      0.48014260
       4069.0800      0.49526800
       4071.0200      0.50551150
       4072.9600      0.48102370
       4074.9000      0.47530370
       4076.8400      0.50043770
       4078.7800      0.47937110
       4080.7200      0.43534530
       4082.6600      0.45010230
       4084.6000      0.49413770
       4086.5400      0.50504460
       4088.4800      0.47632690
       4090.4200      0.44956330
       4092.3600      0.44268440
       4094.3000      0.42247850
       4096.2400      0.43260800
       4098.1800      0.43430980
       4100.1200      0.39555330
       4102.0600      0.37626900
       4104.0000      0.40605900
       4105.9400      0.41993210
       4107.8800      0.39798560
       4109.8200      0.38466660
       4111.7600      0.39051720
       4113.7000      0.40644620
       4115.6400      0.39664140
       4117.5800      0.39073640
       4119.5200      0.36589760
       4121.4600      0.31647510
       4123.4000      0.33159370
       4125.3400      0.36414150
       4127.2800      0.34675310
       4129.2200      0.33469900
       4131.1600      0.35552010
       4133.1000      0.35669820
       4135.0400      0.31831240
       4136.9800      0.31518210
       4138.9200      0.31736370
       4140.8600      0.31477420
       4142.8000      0.33001130
       4144.7400      0.32147490
       4146.6800      0.32648130
       4148.6200      0.30521310
       4150.5600      0.26237500
       4152.5000      0.28015280
       4154.4400      0.31817370
       4156.3800      0.25734450
       4158.3200      0.22890080
       4160.2600      0.26565260
       4162.2000      0.25479130
       4164.1400      0.22468680
       4166.0800      0.22338090
       4168.0200      0.22855870
       4169.9600      0.24222570
       4171.9000      0.23894380
       4173.8400      0.21477250
       4175.7800      0.21653660
       4177.7200      0.23202210
       4179.6600      0.26690420
       4181.6000      0.25741220
       4183.5400      0.21477520
       4185.4800      0.22791250
       4187.4200      0.23510150
       4189.3600      0.23863280
       4191.3000      0.28146430
       4193.2400      0.29336630
       4195.1800      0.26173520
       4197.1200      0.25309210
       4199.0600      0.26604570
       4201.0000      0.25061880
       4202.9400      0.24021770
       4204.8800      0.26241620
       4206.8200      0.26970280
       4208.7600      0.25787660
       4210.7000      0.24312010
       4212.6400      0.27077580
       4214.5800      0.27477260
       4216.5200      0.26220570
       4218.4600      0.27961980
       4220.4000      0.27513570
       4222.3400      0.26370560
       4224.2800      0.26605400
       4226.2200      0.28047800
       4228.1600      0.30587690
       4230.1000      0.27707110
       4232.0400      0.24193090
       4233.9800      0.28195420
       4235.9200      0.31350050
       4237.8600      0.31032390
       4239.8000      0.30975320
       4241.7400      0.32281410
       4243.6800      0.32936680
       4245.6200      0.31223800
       4247.5600      0.28825990
       4249.5000      0.28373810
       4251.4400      0.27490500
       4253.3800      0.29150250
       4255.3200      0.28659350
       4257.2600      0.26694320
       4259.2000      0.28752600
       4261.1400      0.28436230
       4263.0800      0.27905240
       4265.0200      0.30003120
       4266.9600      0.27958260
       4268.9000      0.27306570
       4270.8400      0.30339110
       4272.7800      0.30742950
       4274.7200      0.30989960
       4276.6600      0.29584190
       4278.6000      0.27419200
       4280.5400      0.29414100
       4282.4800      0.31087950
       4284.4200      0.30795740
       4286.3600      0.29023140
       4288.3000      0.30880310
       4290.2400      0.32382660
       4292.1800      0.26941530
       4294.1200      0.24974380
       4296.0600      0.30371480
       4298.0000      0.33562130
       4299.9400      0.31482410
       4301.8800      0.29051950
       4303.8200      0.28906130
       4305.7600      0.29654590
       4307.7000      0.29460900
       4309.6400      0.32204840
       4311.5800      0.33840360
       4313.5200      0.30117640
       4315.4600      0.31194490
       4317.4000      0.32520800
       4319.3400      0.33232370
       4321.2800      0.29456930
       4323.2200      0.27351990
       4325.1600      0.30198440
       4327.1000      0.33764170
       4329.0400      0.33384790
       4330.9800      0.32702370
       4332.9200      0.30379420
       4334.8600      0.29373540
       4336.8000      0.32295810
       4338.7400      0.29851880
       4340.6800      0.28605850
       4342.6200      0.34363890
       4344.5600      0.36887360
       4346.5000      0.32960370
       4348.4400      0.31930360
       4350.3800      0.31313260
       4352.3200      0.31557180
       4354.2600      0.35904930
       4356.2000      0.36219940
       4358.1400      0.33939740
       4360.0800      0.29271080
       4362.0200      0.26316100
       4363.9600      0.30902360
       4365.9000      0.36005660
       4367.8400      0.35194370
       4369.7800      0.32102130
       4371.7200      0.33844180
       4373.6600      0.35291740
       4375.6000      0.34937510
       4377.5400      0.36468940
       4379.4800      0.37416680
       4381.4200      0.37139730
       4383.3600      0.34350500
       4385.3000      0.32994700
       4387.2400      0.32277420
       4389.1800      0.32350780
       4391.1200      0.32760050
       4393.0600      0.33082370
       4395.0000      0.34180020
       4396.9400      0.33156550
       4398.8800      0.30775980
       4400.8200      0.30102530
       4402.7600      0.31951700
       4404.7000      0.30987290
       4406.6400      0.28421040
       4408.5800      0.30211980
       4410.5200      0.30709900
       4412.4600      0.29398620
       4414.4000      0.28066430
       4416.3400      0.30196440
       4418.2800      0.33064520
       4420.2200      0.30922380
       4422.1600      0.28023490
       4424.1000      0.26070160
       4426.0400      0.26278050
       4427.9800      0.28956820
       4429.9200      0.32133570
       4431.8600      0.28111800
       4433.8000      0.26709400
       4435.7400      0.32037370
       4437.6800      0.32241520
       4439.6200      0.28269300
       4441.5600      0.30245810
       4443.5000      0.31735580
       4445.4400      0.30856170
       4447.3800      0.31597590
       4449.3200      0.30815760
       4451.2600      0.30381750
       4453.2000      0.31370050
       4455.1400      0.33390260
       4457.0800      0.34373290
       4459.0200      0.34788260
       4460.9600      0.34132230
       4462.9000      0.33525240
       4464.8400      0.34153850
       4466.7800      0.31599900
       4468.7200      0.35165700
       4470.6600      0.36856100
       4472.6000      0.36420210
       4474.5400      0.38730740
       4476.4800      0.41560450
       4478.4200      0.39843330
       4480.3600      0.38230790
       4482.3000      0.40317010
       4484.2400      0.40425630
       4486.1800      0.43709010
       4488.1200      0.44081440
       4490.0600      0.42985620
       4492.0000      0.44062680
       4493.9400      0.48291910
       4495.8800      0.45355070
