Units are: observed wavelength (Ang), observed flux (10^-15 erg/s/cm^2/Ang)
       3477.0000     -0.22855240
       3478.4700     -0.18907790
       3479.9400       1.1034860
       3481.4100       2.3852780
       3482.8800     -0.16739390
       3484.3500     -0.16708200
       3485.8200     -0.35848760
       3487.2900     -0.28948980
       3488.7600      0.19479080
       3490.2300      0.14976420
       3491.7000     -0.12508170
       3493.1700    -0.025713950
       3494.6400    -0.014158710
       3496.1100      0.16273080
       3497.5800      0.74132700
       3499.0500      0.50675050
       3500.5200     -0.30837740
       3501.9900    -0.075794490
       3503.4600      0.15906330
       3504.9300      0.39963930
       3506.4000      0.43439080
       3507.8700    -0.017787570
       3509.3400     0.029403320
       3510.8100     0.061160880
       3512.2800    -0.026276610
       3513.7500     0.082909910
       3515.2200     0.072653660
       3516.6900     -0.12503370
       3518.1600     -0.15161270
       3519.6300    -0.086577750
       3521.1000     -0.11785580
       3522.5700      0.10393870
       3524.0400      0.96029110
       3525.5100       1.7256000
       3526.9800      0.86874670
       3528.4500      0.20382340
       3529.9200      0.73628750
       3531.3900      0.24417590
       3532.8600      0.40307920
       3534.3300    0.0071663130
       3535.8000     0.024646890
       3537.2700     0.036597970
       3538.7400     -0.27036960
       3540.2100     -0.50338680
       3541.6800     0.070431610
       3543.1500     0.082690480
       3544.6200    -0.075620530
       3546.0900     -0.10970730
       3547.5600     -0.13420980
       3549.0300     0.019334210
       3550.5000      0.16278720
       3551.9700      0.17481660
       3553.4400     -0.21738570
       3554.9100     -0.12697020
       3556.3800      0.15911950
       3557.8500    0.0017751420
       3559.3200    -0.034329770
       3560.7900     -0.47755450
       3562.2600     -0.39160140
       3563.7300     0.041375420
       3565.1999  -0.00036185650
       3566.6700   -0.0060894990
       3568.1400     -0.13567100
       3569.6100    -0.093799260
       3571.0800     -0.19377050
       3572.5500     -0.16167250
       3574.0200    -0.031251530
       3575.4900   -0.0089808160
       3576.9600     -0.12543900
       3578.4300     -0.16437520
       3579.9000    -0.056357570
       3581.3700   -0.0022159130
       3582.8400    -0.058719650
       3584.3100    -0.020830040
       3585.7800    0.0013054270
       3587.2500      0.13186680
       3588.7200      0.32790620
       3590.1900      0.20749590
       3591.6600    -0.053830940
       3593.1300     0.068906760
       3594.6000      0.19345020
       3596.0700    0.0025643160
       3597.5400    -0.045780770
       3599.0100     0.023821520
       3600.4800    -0.037513240
       3601.9500     -0.14782820
       3603.4200      0.12923640
       3604.8900      0.67936340
       3606.3600      0.27690740
       3607.8300      0.22867350
       3609.3000    -0.054995600
       3610.7700     0.049659200
       3612.2400     0.043200460
       3613.7100      0.11625600
       3615.1800      0.29646110
       3616.6500    -0.090983980
       3618.1200    -0.045330650
       3619.5900      0.19193910
       3621.0600   -0.0058249560
       3622.5300      0.13934030
       3624.0000     -0.15351050
       3625.4700     0.078708020
       3626.9400      0.51555720
       3628.4100      0.14711180
       3629.8800     0.038810040
       3631.3500    -0.053108690
       3632.8200      0.13300850
       3634.2900       1.1008990
       3635.7600       1.0073070
       3637.2300     -0.39762540
       3638.7000      0.18560740
       3640.1700      0.16676940
       3641.6400     -0.15316530
       3643.1100    -0.080228220
       3644.5800      0.12337790
       3646.0500   -0.0075551390
       3647.5200      0.11846450
       3648.9900     0.096731460
       3650.4600     -0.10993350
       3651.9300     0.044297430
       3653.4000     0.067872580
       3654.8700    -0.056691250
       3656.3400   -0.0036465430
       3657.8100     0.049841050
       3659.2800      0.16326320
       3660.7500      0.16357220
       3662.2200      0.25735600
       3663.6900      0.12455410
       3665.1600    0.0089432120
       3666.6300      0.11351100
       3668.1000      0.22099880
       3669.5700      0.27953120
       3671.0400      0.19808420
       3672.5100      0.22602470
       3673.9800      0.31799360
       3675.4500      0.20590880
       3676.9200      0.28796910
       3678.3900      0.24836220
       3679.8600      0.33171050
       3681.3300      0.39850180
       3682.8000      0.21652170
       3684.2700      0.13763710
       3685.7400      0.13194480
       3687.2100      0.14234420
       3688.6800      0.21380630
       3690.1500      0.33993240
       3691.6200      0.18505610
       3693.0900     0.093366820
       3694.5600      0.15386280
       3696.0300      0.15013630
       3697.5000      0.16214450
       3698.9700     0.092014000
       3700.4400      0.46110380
       3701.9100      0.54039890
       3703.3800    -0.074137540
       3704.8500      0.38528640
       3706.3200      0.34077190
       3707.7900    -0.095796420
       3709.2600      0.16961420
       3710.7300      0.14256810
       3712.2000      0.16041970
       3713.6700      0.10618370
       3715.1400    -0.014313280
       3716.6100      0.37132540
       3718.0800      0.43477900
       3719.5500      0.11470190
       3721.0200      0.19355370
       3722.4900      0.26195500
       3723.9600      0.13711960
       3725.4300    -0.010816400
       3726.9000     0.052458180
       3728.3700      0.13520780
       3729.8400      0.53232150
       3731.3100      0.26879980
       3732.7800     0.097175850
       3734.2500      0.19019490
       3735.7200      0.16656840
       3737.1900      0.12042060
       3738.6600   -0.0023186590
       3740.1300     -0.20363590
       3741.6000     -0.19637660
       3743.0700     -0.10162070
       3744.5400      0.28571210
       3746.0100      0.40591420
       3747.4800      0.51191550
       3748.9500     0.093546590
       3750.4200     0.015567490
       3751.8900      0.29934450
       3753.3600      0.17676300
       3754.8300      0.43085650
       3756.3000      0.37747960
       3757.7700      0.11208250
       3759.2400      0.26592630
       3760.7100      0.40031520
       3762.1800      0.11821160
       3763.6500      0.29201200
       3765.1200      0.17251430
       3766.5900     0.092856730
       3768.0600      0.30110500
       3769.5300      0.28865940
       3771.0000      0.21481030
       3772.4700      0.27751500
       3773.9400      0.13685670
       3775.4100      0.28753150
       3776.8800      0.16069640
       3778.3500      0.12152550
       3779.8200      0.20480780
       3781.2900      0.21462800
       3782.7600      0.28000670
       3784.2300     0.080701320
       3785.7000     0.036333690
       3787.1700     0.062620040
       3788.6400    -0.062730700
       3790.1100     0.036792480
       3791.5800      0.11725300
       3793.0500      0.12487810
       3794.5200     0.071664230
       3795.9900     -0.13763570
       3797.4600   -0.0062421280
       3798.9300      0.36265190
       3800.4000      0.34678170
       3801.8700      0.10795180
       3803.3400      0.18575010
       3804.8100     0.067430880
       3806.2800     0.035444120
       3807.7500      0.11346920
       3809.2200      0.15448690
       3810.6900     0.061629350
       3812.1600   -0.0062505540
       3813.6300     0.029776520
       3815.1000     0.060334520
       3816.5700     0.043185550
       3818.0400     0.044395690
       3819.5100     0.024835660
       3820.9800    -0.062684070
       3822.4500     0.023728580
       3823.9200      0.10704160
       3825.3900     0.084046710
       3826.8600     0.089905870
       3828.3300     0.083992330
       3829.8000      0.21908020
       3831.2700      0.14563670
       3832.7400      0.17009670
       3834.2100      0.12530150
       3835.6800      0.24836130
       3837.1500     0.030489990
       3838.6200    -0.026796010
       3840.0900   -0.0051375220
       3841.5600     0.055088550
       3843.0300      0.12227170
       3844.5000     0.043284360
       3845.9700      0.13300220
       3847.4400      0.11475050
       3848.9100      0.19866350
       3850.3800     0.030831400
       3851.8500     0.064677230
       3853.3200      0.16757980
       3854.7900      0.20048660
       3856.2600      0.24301300
       3857.7300      0.12513840
       3859.2000      0.23258370
       3860.6700      0.17218700
       3862.1400      0.11333860
       3863.6100    0.0017748150
       3865.0800    0.0074858440
       3866.5500     0.093589240
       3868.0200      0.15764230
       3869.4900     0.044455430
       3870.9600     0.089692380
       3872.4300    -0.012016730
       3873.9000      0.13378630
       3875.3700      0.27029240
       3876.8400      0.19866160
       3878.3099      0.17601860
       3879.7800      0.28090180
       3881.2500      0.25797940
       3882.7200      0.18273530
       3884.1900      0.26073830
       3885.6600      0.22051400
       3887.1300      0.24578910
       3888.6000      0.18092110
       3890.0700      0.12377810
       3891.5400      0.11738870
       3893.0100      0.21157790
       3894.4800      0.22815740
       3895.9500      0.13005070
       3897.4200      0.22223270
       3898.8900      0.22793440
       3900.3600      0.36316690
       3901.8300      0.35647540
       3903.3000      0.20731750
       3904.7700      0.36725910
       3906.2400      0.38834590
       3907.7100      0.34013900
       3909.1800      0.31086440
       3910.6500      0.29790380
       3912.1200      0.20797760
       3913.5900      0.29158820
       3915.0600      0.51839000
       3916.5300      0.28771740
       3918.0000      0.26053960
       3919.4700      0.38366900
       3920.9400      0.29071670
       3922.4100      0.34012180
       3923.8800      0.34569410
       3925.3500      0.35436170
       3926.8200      0.40184270
       3928.2900      0.27309420
       3929.7600      0.23898420
       3931.2300      0.26474700
       3932.7000      0.27890910
       3934.1700      0.20615840
       3935.6400      0.29196120
       3937.1100      0.34311180
       3938.5800      0.30970810
       3940.0500      0.31166410
       3941.5200      0.26031040
       3942.9900      0.31680990
       3944.4600      0.29541970
       3945.9300      0.27370500
       3947.4000      0.37636050
       3948.8700      0.37749110
       3950.3400      0.30685220
       3951.8100      0.38620230
       3953.2800      0.25422170
       3954.7500      0.46325140
       3956.2200      0.33249810
       3957.6900      0.36817430
       3959.1600      0.41369560
       3960.6300      0.34423810
       3962.1000      0.54566960
       3963.5700      0.46436980
       3965.0400      0.43283710
       3966.5100      0.54720530
       3967.9800      0.29073840
       3969.4500      0.35818940
       3970.9200      0.52464320
       3972.3900      0.62593220
       3973.8600      0.57458410
       3975.3300      0.48569870
       3976.8000      0.29758580
       3978.2700      0.31260960
       3979.7400      0.38312420
       3981.2100      0.48196180
       3982.6800      0.50682460
       3984.1500      0.32946300
       3985.6200      0.34631930
       3987.0900      0.33175610
       3988.5600      0.38310300
       3990.0300      0.59427300
       3991.5000      0.57758160
       3992.9700      0.45946710
       3994.4400      0.39721390
       3995.9100      0.35128610
       3997.3800      0.30751220
       3998.8500      0.36010750
       4000.3200      0.38681640
       4001.7900      0.38466820
       4003.2600      0.30820890
       4004.7300      0.26258110
       4006.2000      0.42448200
       4007.6700      0.37768880
       4009.1400      0.51405360
       4010.6100      0.61771120
       4012.0800      0.39809160
       4013.5500      0.30109410
       4015.0200      0.45813290
       4016.4900      0.60699160
       4017.9600      0.44009630
       4019.4300      0.46484050
       4020.9000      0.73021600
       4022.3700      0.65088060
       4023.8400      0.41830210
       4025.3100      0.44749430
       4026.7800      0.48739910
       4028.2500      0.39598750
       4029.7200      0.35666000
       4031.1900      0.31093310
       4032.6600      0.31349160
       4034.1300      0.30411260
       4035.6000      0.39161280
       4037.0700      0.54490690
       4038.5400      0.49007390
       4040.0100      0.34757190
       4041.4800      0.47568960
       4042.9500      0.58277260
       4044.4200      0.41334800
       4045.8900      0.48733590
       4047.3600      0.57436110
       4048.8300      0.41960880
       4050.3000      0.34111800
       4051.7700      0.44899600
       4053.2400      0.36212940
       4054.7100      0.37650150
       4056.1800      0.49011480
       4057.6500      0.35745310
       4059.1200      0.40828890
       4060.5900      0.60539830
       4062.0600      0.70134620
       4063.5300      0.43282770
       4065.0000      0.40303810
       4066.4700      0.40371430
       4067.9400      0.38217220
       4069.4100      0.32250700
       4070.8800      0.39267110
       4072.3500      0.49114220
       4073.8200      0.45218540
       4075.2900      0.29557670
       4076.7600      0.22357900
       4078.2300      0.30952670
       4079.7000      0.38943950
       4081.1700      0.42629810
       4082.6400      0.28155370
       4084.1100      0.28590700
       4085.5800      0.32031450
       4087.0500      0.39308640
       4088.5200      0.38907040
       4089.9900      0.33374170
       4091.4600      0.35177720
       4092.9300      0.34947400
       4094.4000      0.28482420
       4095.8700      0.36948750
       4097.3400      0.45279160
       4098.8100      0.47750580
       4100.2800      0.48706210
       4101.7500      0.38609670
       4103.2200      0.34316730
       4104.6900      0.35073400
       4106.1600      0.40027870
       4107.6300      0.64191310
       4109.1000      0.56307220
       4110.5700      0.28995600
       4112.0400      0.62260390
       4113.5100      0.62006660
       4114.9800      0.36217910
       4116.4500      0.32101390
       4117.9200      0.34782920
       4119.3900      0.36903010
       4120.8600      0.27389180
       4122.3300      0.23537470
       4123.8000      0.25316150
       4125.2700      0.24164570
       4126.7400      0.27518200
       4128.2100      0.34074200
       4129.6800      0.36524260
       4131.1500      0.35896650
       4132.6200      0.32195960
       4134.0900      0.22524150
       4135.5600      0.25893280
       4137.0300      0.28605040
       4138.5000      0.23522000
       4139.9700      0.23882860
       4141.4400      0.31561930
       4142.9100      0.37712310
       4144.3800      0.32489440
       4145.8500      0.32100640
       4147.3200      0.30760040
       4148.7900      0.22250150
       4150.2600      0.21528950
       4151.7300      0.25226640
       4153.2000      0.26784240
       4154.6700      0.29174180
       4156.1400      0.27802300
       4157.6100      0.23435990
       4159.0800      0.25186080
       4160.5500      0.30294790
       4162.0200      0.33857710
       4163.4900      0.31346550
       4164.9600      0.25107830
       4166.4300      0.21312590
       4167.9000      0.18374220
       4169.3700      0.14394600
       4170.8400      0.19255520
       4172.3100      0.28438260
       4173.7800      0.23514440
       4175.2500      0.16752660
       4176.7200      0.20683970
       4178.1900      0.21882550
       4179.6600      0.23612840
       4181.1300      0.27110180
       4182.6000      0.24980500
       4184.0700      0.20729470
       4185.5400      0.21361750
       4187.0100      0.22725380
       4188.4800      0.25445310
       4189.9500      0.23373670
       4191.4199      0.20598000
       4192.8900      0.18966280
       4194.3600      0.23251730
       4195.8300      0.23302930
       4197.3000      0.24226780
       4198.7700      0.23140100
       4200.2400      0.20843440
       4201.7100      0.20142460
       4203.1800      0.15936620
       4204.6500      0.23780630
       4206.1200      0.24100740
       4207.5900      0.22737650
       4209.0600      0.23374540
       4210.5300      0.24595270
       4212.0000      0.26625700
       4213.4700      0.24656960
       4214.9400      0.24955000
       4216.4100      0.21848190
       4217.8800      0.18906270
       4219.3500      0.20807530
       4220.8200      0.19774830
       4222.2900      0.24683460
       4223.7600      0.21509510
       4225.2300      0.26163080
       4226.7000      0.24771690
       4228.1700      0.25351750
       4229.6400      0.26754570
       4231.1100      0.26183600
       4232.5800      0.22004150
       4234.0500      0.20617660
       4235.5200      0.20683370
       4236.9900      0.20551640
       4238.4600      0.20131530
       4239.9300      0.23806810
       4241.4000      0.19516900
       4242.8700      0.21070050
       4244.3400      0.26101950
       4245.8100      0.19441620
       4247.2800      0.22195540
       4248.7500      0.27469560
       4250.2200      0.20333680
       4251.6900      0.24826710
       4253.1600      0.21395980
       4254.6300      0.24195400
       4256.1000      0.24496640
       4257.5700      0.21002360
       4259.0400      0.25413960
       4260.5100      0.25975340
       4261.9800      0.24606930
       4263.4500      0.23075400
       4264.9200      0.27145710
       4266.3900      0.27419920
       4267.8600      0.24864920
       4269.3300      0.23122350
       4270.8000      0.24259100
       4272.2700      0.24138940
       4273.7400      0.25180060
       4275.2100      0.27979390
       4276.6800      0.24701640
       4278.1500      0.23717090
       4279.6200      0.24359180
       4281.0900      0.22413680
       4282.5600      0.22917680
       4284.0300      0.27368170
       4285.5000      0.23236160
       4286.9700      0.19253630
       4288.4400      0.22531240
       4289.9100      0.24473050
       4291.3800      0.22521470
       4292.8500      0.25826280
       4294.3200      0.25425230
       4295.7900      0.23868790
       4297.2600      0.21852540
       4298.7300      0.23668180
       4300.2000      0.25510470
       4301.6700      0.24707850
       4303.1400      0.25818510
       4304.6100      0.21350380
       4306.0800      0.25186440
       4307.5500      0.27971320
       4309.0200      0.22950180
       4310.4900      0.22440080
       4311.9600      0.23803900
       4313.4300      0.25284720
       4314.9000      0.22020590
       4316.3700      0.21928040
       4317.8400      0.25651120
       4319.3100      0.24768170
       4320.7800      0.24647920
       4322.2500      0.25592710
       4323.7200      0.27075390
       4325.1900      0.25608450
       4326.6600      0.21087760
       4328.1300      0.21966120
       4329.6000      0.25683450
       4331.0700      0.23217630
       4332.5400      0.23051640
       4334.0100      0.24496990
       4335.4800      0.25014110
       4336.9500      0.27189360
       4338.4200      0.25052170
       4339.8900      0.21709460
       4341.3600      0.22163670
       4342.8300      0.26425790
       4344.3000      0.26525030
       4345.7700      0.27205120
       4347.2400      0.24246960
       4348.7100      0.25330020
       4350.1800      0.25982490
       4351.6500      0.26277160
       4353.1200      0.24155890
       4354.5900      0.18575630
       4356.0600      0.21785190
       4357.5300      0.30109610
       4359.0000      0.24619260
       4360.4700      0.26314960
       4361.9400      0.26559580
