Units are: observed wavelength (Ang), observed flux (10^-15 erg/s/cm^2/Ang)
       3442.3491       2.7666440
       3444.2968       2.7015180
       3446.2444       2.7225450
       3448.1921       2.6934550
       3450.1397       2.5528550
       3452.0873       2.6201260
       3454.0350       2.5341490
       3455.9826       2.6993580
       3457.9302       2.4950910
       3459.8779       2.5410320
       3461.8255       2.5044460
       3463.7732       2.3348300
       3465.7208       2.4361760
       3467.6684       2.4166560
       3469.6161       2.3318050
       3471.5637       2.4002340
       3473.5114       2.3024210
       3475.4590       2.3156280
       3477.4066       2.2399500
       3479.3543       2.3714020
       3481.3019       2.3491140
       3483.2496       2.4400840
       3485.1972       2.4590220
       3487.1448       2.3908070
       3489.0925       2.2650180
       3491.0401       2.3269440
       3492.9878       2.2657980
       3494.9354       2.3750490
       3496.8830       2.4011370
       3498.8307       2.3249590
       3500.7783       2.3193740
       3502.7260       2.3287640
       3504.6736       2.3168610
       3506.6212       2.3284200
       3508.5689       2.3550620
       3510.5165       2.3208490
       3512.4642       2.2802750
       3514.4118       2.3689350
       3516.3594       2.3112250
       3518.3071       2.3483010
       3520.2547       2.3943440
       3522.2023       2.3421930
       3524.1500       2.3182710
       3526.0976       2.3971070
       3528.0453       2.3294330
       3529.9929       2.3225230
       3531.9405       2.3343530
       3533.8882       2.3350880
       3535.8358       2.3041340
       3537.7835       2.2767040
       3539.7311       2.2860400
       3541.6787       2.2767820
       3543.6264       2.2667750
       3545.5740       2.1821150
       3547.5217       2.2801540
       3549.4693       2.2561140
       3551.4169       2.2176850
       3553.3646       2.2766360
       3555.3122       2.2876280
       3557.2599       2.2498990
       3559.2075       2.2366150
       3561.1551       2.1845250
       3563.1028       2.1556670
       3565.0504       2.2532370
       3566.9981       2.2040970
       3568.9457       2.2207470
       3570.8933       2.3051420
       3572.8410       2.1914500
       3574.7886       2.1763370
       3576.7363       2.2601870
       3578.6839       2.1876670
       3580.6315       2.1280580
       3582.5792       2.0660500
       3584.5268       2.0583450
       3586.4744       2.0994040
       3588.4221       2.1129520
       3590.3697       2.0985620
       3592.3174       2.1084720
       3594.2650       2.1009990
       3596.2126       2.0918910
       3598.1603       2.0696210
       3600.1079       2.1056710
       3602.0556       2.0643430
       3604.0032       2.0652820
       3605.9508       2.0387150
       3607.8985       2.0826840
       3609.8461       2.0705390
       3611.7938       1.9533950
       3613.7414       1.8662940
       3615.6890       1.8893820
       3617.6367       1.9654590
       3619.5843       1.9909170
       3621.5320       1.9801410
       3623.4796       1.9471220
       3625.4272       2.0226630
       3627.3749       1.9822740
       3629.3225       1.9968110
       3631.2702       2.0831480
       3633.2178       2.0739120
       3635.1654       2.0050060
       3637.1131       2.0386680
       3639.0607       2.0821040
       3641.0084       2.0666850
       3642.9560       2.1112040
       3644.9036       2.1101170
       3646.8513       2.0558560
       3648.7989       2.0537410
       3650.7465       2.1491070
       3652.6942       2.0851300
       3654.6418       2.0618050
       3656.5895       2.0741500
       3658.5371       2.0960350
       3660.4847       2.0831150
       3662.4324       2.0267880
       3664.3800       2.1259080
       3666.3277       2.0832320
       3668.2753       2.0426960
       3670.2229       2.0118860
       3672.1706       2.0008390
       3674.1182       2.0219420
       3676.0659       2.0319280
       3678.0135       2.0266410
       3679.9611       1.9819250
       3681.9088       1.9738130
       3683.8564       1.9613960
       3685.8041       1.8992010
       3687.7517       1.9285820
       3689.6993       1.9091460
       3691.6470       1.8805530
       3693.5946       1.8161180
       3695.5423       1.7805910
       3697.4899       1.7876450
       3699.4375       1.8117420
       3701.3852       1.7231090
       3703.3328       1.7050430
       3705.2805       1.6927440
       3707.2281       1.7094440
       3709.1757       1.7072310
       3711.1234       1.6553130
       3713.0710       1.7058430
       3715.0186       1.6353230
       3716.9663       1.6606280
       3718.9139       1.6933830
       3720.8616       1.6810110
       3722.8092       1.6771470
       3724.7568       1.7320140
       3726.7045       1.6926480
       3728.6521       1.6704750
       3730.5998       1.7130840
       3732.5474       1.7175010
       3734.4950       1.6363010
       3736.4427       1.6398950
       3738.3903       1.6237450
       3740.3380       1.6515960
       3742.2856       1.6555500
       3744.2332       1.6328700
       3746.1809       1.6111590
       3748.1285       1.5432150
       3750.0762       1.4967780
       3752.0238       1.4693960
       3753.9714       1.4598640
       3755.9191       1.3725400
       3757.8667       1.3184800
       3759.8144       1.3119140
       3761.7620       1.2920120
       3763.7096       1.2934240
       3765.6573       1.2997440
       3767.6049       1.3056170
       3769.5525       1.3133570
       3771.5002       1.3126750
       3773.4478       1.3407480
       3775.3955       1.3083980
       3777.3431       1.3066530
       3779.2907       1.3003920
       3781.2384       1.3330950
       3783.1860       1.3808440
       3785.1337       1.3540830
       3787.0813       1.3963270
       3789.0289       1.4063100
       3790.9766       1.4382900
       3792.9242       1.4807110
       3794.8719       1.4825450
       3796.8195       1.4665800
       3798.7671       1.4821330
       3800.7148       1.5393870
       3802.6624       1.5425630
       3804.6101       1.5680190
       3806.5577       1.5911100
       3808.5053       1.5862320
       3810.4530       1.5686720
       3812.4006       1.5719710
       3814.3483       1.5644210
       3816.2959       1.6270320
       3818.2435       1.6721210
       3820.1912       1.6517170
       3822.1388       1.6787150
       3824.0865       1.7170060
       3826.0341       1.6744180
       3827.9817       1.7198290
       3829.9294       1.7937230
       3831.8770       1.7843680
       3833.8246       1.8267920
       3835.7723       1.7791750
       3837.7199       1.7838040
       3839.6676       1.7877010
       3841.6152       1.7751140
       3843.5628       1.8069260
       3845.5105       1.8474430
       3847.4581       1.7876550
       3849.4058       1.7837410
       3851.3534       1.8139130
       3853.3010       1.8384400
       3855.2487       1.8188380
       3857.1963       1.8605200
       3859.1440       1.8982130
       3861.0916       1.8457360
       3863.0392       1.7923250
       3864.9869       1.7992390
       3866.9345       1.7987600
       3868.8822       1.7710530
       3870.8298       1.7758020
       3872.7774       1.8358810
       3874.7251       1.8017010
       3876.6727       1.7798880
       3878.6204       1.8052080
       3880.5680       1.8166420
       3882.5156       1.8183380
       3884.4633       1.8366160
       3886.4109       1.8710470
       3888.3586       1.8277250
       3890.3062       1.8243410
       3892.2538       1.8481830
       3894.2015       1.8108120
       3896.1491       1.7986970
       3898.0967       1.8134040
       3900.0444       1.7777450
       3901.9920       1.8352470
       3903.9397       1.7903100
       3905.8873       1.7923230
       3907.8349       1.7413340
       3909.7826       1.7797910
       3911.7302       1.7779310
       3913.6779       1.7264700
       3915.6255       1.7561610
       3917.5731       1.7811830
       3919.5208       1.7339010
       3921.4684       1.7189780
       3923.4161       1.7327180
       3925.3637       1.6968760
       3927.3113       1.7528930
       3929.2590       1.7172130
       3931.2066       1.6638210
       3933.1543       1.6126080
       3935.1019       1.6532670
       3937.0495       1.6978590
       3938.9972       1.7442930
       3940.9448       1.7104400
       3942.8925       1.6839700
       3944.8401       1.7174980
       3946.7877       1.7187550
       3948.7354       1.6856740
       3950.6830       1.6063040
       3952.6307       1.6131370
       3954.5783       1.6350430
       3956.5259       1.6628460
       3958.4736       1.6626750
       3960.4212       1.6552820
       3962.3688       1.6284400
       3964.3165       1.5994580
       3966.2641       1.5625180
       3968.2118       1.5295960
       3970.1594       1.5184340
       3972.1070       1.5301040
       3974.0547       1.5350110
       3976.0023       1.4970480
       3977.9500       1.4917350
       3979.8976       1.5458760
       3981.8452       1.5009550
       3983.7929       1.4779520
       3985.7405       1.4853980
       3987.6882       1.4885780
       3989.6358       1.4796150
       3991.5834       1.5208810
       3993.5311       1.5272560
       3995.4787       1.5071660
       3997.4264       1.5619370
       3999.3740       1.5654140
       4001.3216       1.5147470
       4003.2693       1.5067470
       4005.2169       1.4808440
       4007.1646       1.4991790
       4009.1122       1.5536980
       4011.0598       1.5237780
       4013.0075       1.5029730
       4014.9551       1.5636820
       4016.9028       1.5644460
       4018.8504       1.5277190
       4020.7980       1.5053450
       4022.7457       1.5237260
       4024.6933       1.5263850
       4026.6409       1.5084400
       4028.5886       1.5115690
       4030.5362       1.5534370
       4032.4839       1.5614910
       4034.4315       1.5345510
       4036.3791       1.5689340
       4038.3268       1.5915220
       4040.2744       1.5450030
       4042.2221       1.5211690
       4044.1697       1.5491040
       4046.1173       1.5446360
       4048.0650       1.5045120
       4050.0126       1.5315820
       4051.9603       1.5318810
       4053.9079       1.5247920
       4055.8555       1.5424980
       4057.8032       1.5240530
       4059.7508       1.5079230
       4061.6985       1.4760280
       4063.6461       1.4761410
       4065.5937       1.5072990
       4067.5414       1.5110160
       4069.4890       1.4632300
       4071.4367       1.4589220
       4073.3843       1.4634510
       4075.3319       1.4436760
       4077.2796       1.4709480
       4079.2272       1.4530530
       4081.1749       1.4367440
       4083.1225       1.4191680
       4085.0701       1.3722790
       4087.0178       1.3618480
       4088.9654       1.3723990
       4090.9130       1.3241370
       4092.8607       1.2990330
       4094.8083       1.2842260
       4096.7560       1.2507570
       4098.7036       1.2855960
       4100.6512       1.2670890
       4102.5989       1.2423440
       4104.5465       1.2333820
       4106.4942       1.2284950
       4108.4418       1.2601770
       4110.3894       1.2863320
       4112.3371       1.2795350
       4114.2847       1.2731620
       4116.2324       1.3137600
       4118.1800       1.3323400
       4120.1276       1.3581170
       4122.0753       1.3796490
       4124.0229       1.3398680
       4125.9706       1.3621830
       4127.9182       1.3725280
       4129.8658       1.3819680
       4131.8135       1.3843040
       4133.7611       1.3794180
       4135.7088       1.4110550
       4137.6564       1.4153390
       4139.6040       1.4172370
       4141.5517       1.4148780
       4143.4993       1.4161890
       4145.4469       1.4259630
       4147.3946       1.3599970
       4149.3422       1.4031700
       4151.2899       1.4265550
       4153.2375       1.4313390
       4155.1851       1.4179890
       4157.1328       1.4194730
       4159.0804       1.3686970
       4161.0281       1.3628890
       4162.9757       1.3599570
       4164.9233       1.3993080
       4166.8710       1.3784020
       4168.8186       1.3654710
       4170.7663       1.3658240
       4172.7139       1.3215760
       4174.6615       1.3210220
       4176.6092       1.3111450
       4178.5568       1.2976220
       4180.5045       1.3051230
       4182.4521       1.3214310
       4184.3997       1.3040130
       4186.3474       1.2846500
       4188.2950       1.2775580
       4190.2427       1.2813040
       4192.1903       1.2617980
       4194.1379       1.2770830
       4196.0856       1.2851390
       4198.0332       1.2700720
       4199.9809       1.2501220
       4201.9285       1.2725930
       4203.8761       1.2754210
       4205.8238       1.2720760
       4207.7714       1.2519650
       4209.7190       1.2622820
       4211.6667       1.2807250
       4213.6143       1.2514770
       4215.5620       1.2475640
       4217.5096       1.2562030
       4219.4572       1.2774190
       4221.4049       1.2801790
       4223.3525       1.2446840
       4225.3002       1.2445280
       4227.2478       1.2416610
       4229.1954       1.2333140
       4231.1431       1.2339940
       4233.0907       1.2538750
       4235.0384       1.2646920
       4236.9860       1.2794040
       4238.9336       1.2623950
       4240.8813       1.2450800
       4242.8289       1.2572660
       4244.7766       1.2411360
       4246.7242       1.2374220
       4248.6718       1.2177080
       4250.6195       1.2172320
       4252.5671       1.2002840
       4254.5148       1.1983810
       4256.4624       1.1921260
       4258.4100       1.2047290
       4260.3577       1.1922520
       4262.3053       1.2018600
       4264.2530       1.2240210
       4266.2006       1.2048060
       4268.1482       1.1951090
       4270.0959       1.1763280
       4272.0435       1.1730420
       4273.9911       1.1685580
       4275.9388       1.1736520
       4277.8864       1.1769510
       4279.8341       1.1469740
       4281.7817       1.1415340
       4283.7293       1.1620890
       4285.6770       1.1550490
       4287.6246       1.1521570
       4289.5723       1.1345890
       4291.5199       1.1182990
       4293.4675       1.0963440
       4295.4152       1.0679020
       4297.3628       1.0654000
       4299.3105       1.0589970
       4301.2581       1.0478550
       4303.2057       1.0404010
       4305.1534       1.0395940
       4307.1010       1.0552500
       4309.0487       1.0275240
       4310.9963       1.0434170
       4312.9439       1.0340080
       4314.8916       1.0434350
       4316.8392       1.0497610
       4318.7869       1.0797880
       4320.7345       1.0948580
       4322.6821       1.0970030
       4324.6298       1.0830000
       4326.5774       1.1139260
       4328.5251       1.1379680
       4330.4727       1.1514680
       4332.4203       1.1428880
       4334.3680       1.1788510
       4336.3156       1.1884830
       4338.2632       1.1680180
       4340.2109       1.2026410
       4342.1585       1.1898690
       4344.1062       1.1781140
       4346.0538       1.1977200
       4348.0014       1.2124400
       4349.9491       1.2147620
       4351.8967       1.1864480
       4353.8444       1.1829530
       4355.7920       1.1980230
       4357.7396       1.2048560
       4359.6873       1.1970210
       4361.6349       1.2038020
       4363.5826       1.2032360
       4365.5302       1.2061860
       4367.4778       1.2049650
       4369.4255       1.1995700
       4371.3731       1.2064190
       4373.3208       1.2057500
       4375.2684       1.1778210
       4377.2160       1.1793960
       4379.1637       1.1723340
       4381.1113       1.1710540
       4383.0590       1.1640980
       4385.0066       1.1549900
       4386.9542       1.1715820
       4388.9019       1.1811930
       4390.8495       1.1840720
       4392.7972       1.1572530
       4394.7448       1.1491040
       4396.6924       1.1742070
       4398.6401       1.1635310
       4400.5877       1.1402670
       4402.5353       1.1558250
       4404.4830       1.1709990
       4406.4306       1.1692340
       4408.3783       1.1592710
       4410.3259       1.1448110
       4412.2735       1.2054900
       4414.2212       1.1995930
       4416.1688       1.1683350
       4418.1165       1.1580060
       4420.0641       1.1761960
       4422.0117       1.1984440
       4423.9594       1.2016250
       4425.9070       1.2036130
       4427.8547       1.1813960
       4429.8023       1.1913900
       4431.7499       1.1909360
       4433.6976       1.2265370
       4435.6452       1.2292340
       4437.5929       1.1870260
       4439.5405       1.1852390
       4441.4881       1.1890430
       4443.4358       1.1837000
       4445.3834       1.1894770
       4447.3311       1.1737650
       4449.2787       1.1786850
       4451.2263       1.1806670
       4453.1740       1.1693810
       4455.1216       1.1961090
       4457.0693       1.1797670
       4459.0169       1.1714280
       4460.9645       1.1490140
       4462.9122       1.1428890
       4464.8598       1.1809380
       4466.8074       1.1547380
       4468.7551       1.1843320
       4470.7027       1.1669700
       4472.6504       1.1462910
       4474.5980       1.1478910
       4476.5456       1.1104490
       4478.4933       1.1358280
       4480.4409       1.1311870
       4482.3886       1.1024510
       4484.3362       1.0967660
       4486.2838       1.1347640
       4488.2315       1.1278920
       4490.1791       1.1167950
       4492.1268       1.1124360
       4494.0744       1.1083780
       4496.0220       1.1255360
       4497.9697       1.1149890
       4499.9173       1.1115980
       4501.8650       1.1250400
       4503.8126       1.1316580
       4505.7602       1.1296620
       4507.7079       1.1101770
       4509.6555       1.1127200
       4511.6032       1.1265250
       4513.5508       1.1124670
       4515.4984       1.1085860
       4517.4461       1.1177810
       4519.3937       1.0970480
       4521.3413       1.0972080
       4523.2890       1.1014130
       4525.2366       1.0875040
       4527.1843       1.0932360
       4529.1319       1.0960570
       4531.0795       1.0827960
       4533.0272       1.0863140
       4534.9748       1.1099620
       4536.9225       1.0843380
       4538.8701       1.0705320
       4540.8177       1.0763390
       4542.7654       1.0622560
       4544.7130       1.0633430
       4546.6607       1.0588400
       4548.6083       1.0507720
       4550.5559       1.0519020
       4552.5036       1.0564550
       4554.4512       1.0635050
       4556.3989       1.0459050
       4558.3465       1.0606640
       4560.2941       1.0545880
       4562.2418       1.0554170
       4564.1894       1.0555880
       4566.1371       1.0440400
       4568.0847       1.0485310
       4570.0323       1.0349060
       4571.9800       1.0249900
       4573.9276       1.0678290
       4575.8753       1.0520530
       4577.8229       1.0474040
       4579.7705       1.0237170
       4581.7182       1.0356240
       4583.6658       1.0374850
       4585.6134       1.0218800
       4587.5611       1.0339360
       4589.5087       1.0209700
       4591.4564       1.0264570
       4593.4040       1.0412670
       4595.3516       1.0324200
       4597.2993       1.0277610
       4599.2469       1.0198540
       4601.1946       1.0463050
       4603.1422       1.0241990
       4605.0898       1.0127720
       4607.0375       1.0337310
       4608.9851       1.0477620
       4610.9328       1.0146150
       4612.8804       1.0148430
       4614.8280       1.0234450
