Units are: observed wavelength (Ang), observed flux (10^-15 erg/s/cm^2/Ang)
       3478.0000     0.023562760
       3479.4700     0.092585020
       3480.9400      0.36849460
       3482.4100      0.47010510
       3483.8800      0.70839070
       3485.3500      0.48954480
       3486.8200      0.21023270
       3488.2900      0.90741800
       3489.7600      0.76721710
       3491.2300      0.33665120
       3492.7000      0.23642260
       3494.1700      0.21729950
       3495.6400      0.30034970
       3497.1100     -0.33635250
       3498.5800     -0.15845950
       3500.0500      0.54596420
       3501.5200      0.40196620
       3502.9900      0.32066100
       3504.4600      0.42323360
       3505.9300      0.62367060
       3507.4000      0.49964320
       3508.8700      0.18949660
       3510.3400      0.28372010
       3511.8100      0.31268040
       3513.2800      0.44180970
       3514.7500      0.35180660
       3516.2200      0.16036490
       3517.6900      0.41751910
       3519.1600      0.51966830
       3520.6300      0.36606990
       3522.1000      0.10206890
       3523.5700    0.0061114080
       3525.0400      0.15364850
       3526.5100      0.19989370
       3527.9800      0.27117440
       3529.4500      0.72194990
       3530.9200      0.97728940
       3532.3900      0.52474670
       3533.8600      0.57337660
       3535.3300      0.73045840
       3536.8000      0.52170740
       3538.2700      0.44520500
       3539.7400      0.25118730
       3541.2100      0.26692710
       3542.6800     0.028755520
       3544.1500     0.071037820
       3545.6200      0.84165610
       3547.0900      0.88592850
       3548.5600      0.60591700
       3550.0300      0.39119110
       3551.5000      0.23162910
       3552.9700      0.66666050
       3554.4400      0.74897730
       3555.9100      0.43021000
       3557.3800      0.43076120
       3558.8500      0.56033860
       3560.3200      0.61760530
       3561.7900      0.50547980
       3563.2600      0.53730710
       3564.7300      0.84842310
       3566.2000      0.48495810
       3567.6700      0.17859960
       3569.1400      0.43919970
       3570.6100      0.43938270
       3572.0800      0.39290810
       3573.5500      0.52716280
       3575.0200      0.53125250
       3576.4900      0.40654780
       3577.9600      0.57660090
       3579.4300      0.64205830
       3580.9000      0.68575080
       3582.3700      0.97859080
       3583.8400      0.92214360
       3585.3100      0.99700740
       3586.7800       1.0250800
       3588.2500      0.76068380
       3589.7200      0.71779410
       3591.1900      0.74359950
       3592.6600      0.64492090
       3594.1300      0.37781920
       3595.6000      0.35523400
       3597.0700      0.51666820
       3598.5399      0.68054340
       3600.0100      0.65361420
       3601.4800      0.33428410
       3602.9500      0.41725500
       3604.4200      0.44008370
       3605.8900      0.47173230
       3607.3600      0.48409260
       3608.8300      0.40153690
       3610.3000      0.58773250
       3611.7700      0.62396500
       3613.2400      0.57412530
       3614.7100      0.50688950
       3616.1800      0.46549880
       3617.6500      0.55383820
       3619.1200      0.87611160
       3620.5900      0.80360470
       3622.0600      0.49613070
       3623.5300      0.38869430
       3625.0000      0.59410520
       3626.4700      0.78260730
       3627.9400      0.71909450
       3629.4100      0.77135970
       3630.8800      0.69644870
       3632.3500      0.55065150
       3633.8200      0.40378430
       3635.2900      0.33554380
       3636.7600      0.45205820
       3638.2300      0.57803630
       3639.7000      0.57715190
       3641.1700      0.43057420
       3642.6400      0.25084220
       3644.1100      0.53889570
       3645.5800      0.63769450
       3647.0500      0.47053990
       3648.5200      0.59462330
       3649.9900      0.65890130
       3651.4600      0.67407760
       3652.9300      0.54988390
       3654.4000      0.47522070
       3655.8700      0.57239780
       3657.3400      0.58589150
       3658.8100      0.78785630
       3660.2800      0.81094380
       3661.7500      0.59636210
       3663.2200      0.65983900
       3664.6900      0.64270100
       3666.1600      0.59557800
       3667.6300      0.77652250
       3669.1000      0.83157590
       3670.5700      0.56577770
       3672.0400      0.47856900
       3673.5100      0.50040070
       3674.9800      0.37028490
       3676.4500      0.34863630
       3677.9200      0.59069810
       3679.3900      0.81283830
       3680.8600      0.70284200
       3682.3300      0.62913410
       3683.8000      0.75903440
       3685.2700      0.80110840
       3686.7400      0.68108020
       3688.2100      0.55291150
       3689.6800      0.61277410
       3691.1500      0.73174250
       3692.6200      0.71004920
       3694.0900      0.62116260
       3695.5600      0.67490800
       3697.0300      0.76344820
       3698.5000      0.66193830
       3699.9700      0.78994130
       3701.4400      0.87320110
       3702.9100      0.80857070
       3704.3800      0.76934010
       3705.8500      0.96834910
       3707.3200      0.95463160
       3708.7900      0.61401760
       3710.2600      0.70207000
       3711.7300      0.86132060
       3713.2000      0.79357170
       3714.6700      0.80477810
       3716.1400      0.84690200
       3717.6100      0.86136130
       3719.0800      0.80667080
       3720.5500      0.90489860
       3722.0200       1.0569980
       3723.4900      0.85366090
       3724.9600      0.85987450
       3726.4300      0.96328840
       3727.9000      0.91389300
       3729.3700      0.89354540
       3730.8400      0.78592500
       3732.3100      0.63834410
       3733.7800      0.68529510
       3735.2500      0.70163460
       3736.7200      0.81977950
       3738.1900      0.93620510
       3739.6600       1.0171300
       3741.1300       1.0728820
       3742.6000      0.93857130
       3744.0700       1.0586590
       3745.5400       1.1796370
       3747.0100      0.95195200
       3748.4800      0.74714230
       3749.9500      0.76297950
       3751.4200      0.84506910
       3752.8900      0.78280310
       3754.3600      0.77405160
       3755.8300      0.87622290
       3757.3000      0.76953950
       3758.7700      0.73752050
       3760.2400      0.84898590
       3761.7100      0.80424540
       3763.1800      0.73586730
       3764.6500      0.83724470
       3766.1200      0.83234010
       3767.5900      0.82762590
       3769.0600      0.79856340
       3770.5300      0.72389730
       3772.0000      0.69386370
       3773.4700      0.63189480
       3774.9400      0.63293990
       3776.4100      0.54865940
       3777.8800      0.57567960
       3779.3500      0.63639990
       3780.8200      0.71715190
       3782.2900      0.90787140
       3783.7600      0.74038100
       3785.2300      0.27706930
       3786.7000      0.29445480
       3788.1700      0.53332290
       3789.6400      0.55942850
       3791.1100      0.47616220
       3792.5800      0.36267050
       3794.0500      0.46607180
       3795.5200      0.67707400
       3796.9900      0.66120640
       3798.4600      0.39990780
       3799.9300      0.32272550
       3801.4000      0.40717620
       3802.8700      0.45396250
       3804.3400      0.49477730
       3805.8100      0.53986690
       3807.2800      0.44194080
       3808.7500      0.35524000
       3810.2200      0.36158910
       3811.6900      0.45532660
       3813.1600      0.42846090
       3814.6300      0.37076550
       3816.1000      0.42025930
       3817.5700      0.41980280
       3819.0400      0.34997840
       3820.5100      0.29504530
       3821.9800      0.54159810
       3823.4500      0.60521190
       3824.9200      0.38433930
       3826.3900      0.47020800
       3827.8600      0.58505820
       3829.3300      0.39467150
       3830.8000      0.28180350
       3832.2700      0.39788370
       3833.7400      0.48502150
       3835.2100      0.49579830
       3836.6800      0.49517390
       3838.1500      0.50229350
       3839.6200      0.52117030
       3841.0900      0.61608540
       3842.5600      0.69995590
       3844.0300      0.63857470
       3845.5000      0.51414630
       3846.9700      0.51536290
       3848.4400      0.59861130
       3849.9100      0.58775720
       3851.3800      0.59616360
       3852.8500      0.53127830
       3854.3200      0.56385200
       3855.7900      0.75308480
       3857.2600      0.72326890
       3858.7300      0.62235520
       3860.2000      0.72944410
       3861.6700      0.79172650
       3863.1400      0.73199770
       3864.6100      0.75321590
       3866.0800      0.89804170
       3867.5500      0.85513290
       3869.0200      0.86562110
       3870.4900      0.93286310
       3871.9600      0.92129870
       3873.4300      0.84150040
       3874.9000      0.70352950
       3876.3700      0.71215500
       3877.8400      0.86961340
       3879.3100       1.0644630
       3880.7800       1.1212940
       3882.2500       1.0856620
       3883.7200       1.0197870
       3885.1900       1.0390080
       3886.6600      0.99222490
       3888.1300      0.89054880
       3889.6000      0.92356640
       3891.0700      0.90397390
       3892.5400      0.95897940
       3894.0100       1.1558250
       3895.4800       1.2740000
       3896.9500       1.0964350
       3898.4200       1.0714070
       3899.8900       1.2186090
       3901.3600       1.2292080
       3902.8300       1.2420590
       3904.3000       1.1370870
       3905.7700       1.0042610
       3907.2400       1.0639930
       3908.7100       1.3025980
       3910.1800       1.4255910
       3911.6499       1.4026520
       3913.1200       1.4268450
       3914.5900       1.4095800
       3916.0600       1.2504490
       3917.5300       1.2602650
       3919.0000       1.3750480
       3920.4700       1.3996650
       3921.9400       1.3994780
       3923.4100       1.3618350
       3924.8800       1.2996650
       3926.3500       1.3879470
       3927.8200       1.3601260
       3929.2900       1.2349550
       3930.7600       1.3775590
       3932.2300       1.5009720
       3933.7000       1.5607650
       3935.1700       1.5842510
       3936.6400       1.4977820
       3938.1100       1.4837880
       3939.5800       1.5609600
       3941.0500       1.6815060
       3942.5200       1.7050050
       3943.9900       1.5385630
       3945.4600       1.5362610
       3946.9300       1.5873680
       3948.4000       1.5635760
       3949.8700       1.5781540
       3951.3400       1.5930670
       3952.8100       1.7271640
       3954.2800       1.8330320
       3955.7500       1.7032680
       3957.2200       1.5993960
       3958.6900       1.6239150
       3960.1600       1.6832010
       3961.6300       1.6820410
       3963.1000       1.6713810
       3964.5700       1.7267920
       3966.0400       1.7188640
       3967.5100       1.8225100
       3968.9800       1.8909410
       3970.4500       1.8583090
       3971.9200       1.8532300
       3973.3900       1.8720410
       3974.8600       1.9624850
       3976.3300       1.8717370
       3977.8000       1.8686610
       3979.2700       2.0280480
       3980.7400       1.9686980
       3982.2100       1.8804710
       3983.6800       1.9117830
       3985.1500       1.9064560
       3986.6200       1.8514830
       3988.0900       1.7735700
       3989.5600       1.8550280
       3991.0300       1.8595700
       3992.5000       1.7498930
       3993.9700       1.9287750
       3995.4400       1.9502020
       3996.9100       1.8761080
       3998.3800       1.9086980
       3999.8500       1.9146200
       4001.3200       1.9694120
       4002.7900       1.9258860
       4004.2600       1.8579850
       4005.7300       1.8277530
       4007.2000       1.9359890
       4008.6700       2.0071030
       4010.1400       1.8880530
       4011.6100       1.8152580
       4013.0800       1.8747890
       4014.5500       1.9495810
       4016.0200       1.7899720
       4017.4900       1.7462310
       4018.9600       1.7909940
       4020.4300       1.7627030
       4021.9000       1.8208940
       4023.3700       1.8539530
       4024.8400       1.7007370
       4026.3100       1.7193050
       4027.7800       1.8021240
       4029.2500       1.7354500
       4030.7200       1.6762890
       4032.1900       1.6274810
       4033.6600       1.4971920
       4035.1300       1.5917110
       4036.6000       1.7599050
       4038.0700       1.6769400
       4039.5400       1.6338910
       4041.0100       1.6530820
       4042.4800       1.6181870
       4043.9500       1.6032870
       4045.4200       1.5656890
       4046.8900       1.6363800
       4048.3600       1.8237600
       4049.8300       1.7456370
       4051.3000       1.6062290
       4052.7700       1.6455500
       4054.2400       1.6073000
       4055.7100       1.5234500
       4057.1800       1.5446380
       4058.6500       1.6232230
       4060.1200       1.6262870
       4061.5900       1.6855990
       4063.0600       1.5965320
       4064.5300       1.4256350
       4066.0000       1.4735060
       4067.4700       1.5405610
       4068.9400       1.5365630
       4070.4100       1.4149110
       4071.8800       1.3831020
       4073.3500       1.4563330
       4074.8200       1.4360770
       4076.2900       1.4405590
       4077.7600       1.4783090
       4079.2300       1.4049090
       4080.7000       1.4285280
       4082.1700       1.4693990
       4083.6400       1.4379320
       4085.1100       1.4986070
       4086.5800       1.4711620
       4088.0500       1.3578560
       4089.5200       1.3959650
       4090.9900       1.4051690
       4092.4600       1.2674730
       4093.9300       1.2986650
       4095.4000       1.2887030
       4096.8700       1.2788690
       4098.3400       1.2301700
       4099.8100       1.2143910
       4101.2800       1.2690900
       4102.7500       1.2222200
       4104.2200       1.1957460
       4105.6900       1.1917280
       4107.1600       1.1732310
       4108.6300       1.2397060
       4110.1000       1.2531490
       4111.5700       1.2453500
       4113.0400       1.2843530
       4114.5100       1.1956620
       4115.9800       1.0798480
       4117.4500       1.0860940
       4118.9200       1.1125730
       4120.3900       1.0684050
       4121.8600       1.0895530
       4123.3300       1.1624650
       4124.8000       1.1748200
       4126.2700       1.0600840
       4127.7400       1.0500270
       4129.2100       1.1148370
       4130.6800       1.1049960
       4132.1500       1.0029990
       4133.6200       1.0210810
       4135.0900       1.0552110
       4136.5600      0.99295690
       4138.0300      0.93511460
       4139.5000      0.87272630
       4140.9700      0.95839800
       4142.4400       1.0185120
       4143.9100      0.93129690
       4145.3800      0.88271500
       4146.8500      0.94319440
       4148.3200      0.95989570
       4149.7900      0.82400390
       4151.2600      0.82275400
       4152.7300      0.85493910
       4154.2000      0.78911170
       4155.6700      0.78952160
       4157.1400      0.80774920
       4158.6100      0.78934900
       4160.0800      0.82746080
       4161.5500      0.87903390
       4163.0200      0.80478740
       4164.4900      0.75805670
       4165.9600      0.84246180
       4167.4300      0.87497050
       4168.9000      0.77536730
       4170.3700      0.77554820
       4171.8400      0.84000960
       4173.3100      0.85335930
       4174.7800      0.75265700
       4176.2500      0.68871740
       4177.7200      0.76289220
       4179.1900      0.81455980
       4180.6600      0.79774270
       4182.1300      0.78716560
       4183.6000      0.74285640
       4185.0700      0.79935680
       4186.5400      0.90862640
       4188.0100      0.83122560
       4189.4800      0.78539680
       4190.9500      0.80268760
       4192.4200      0.83240320
       4193.8900      0.84553960
       4195.3600      0.80985190
       4196.8300      0.80392580
       4198.3000      0.78013830
       4199.7700      0.75159490
       4201.2400      0.80536300
       4202.7100      0.78366450
       4204.1800      0.68745990
       4205.6500      0.77052350
       4207.1200      0.85925680
       4208.5900      0.84247080
       4210.0600      0.86442860
       4211.5300      0.89072470
       4213.0000      0.96135070
       4214.4700      0.93565960
       4215.9400      0.84164720
       4217.4100      0.89846710
       4218.8800      0.93974460
       4220.3500      0.89211730
       4221.8200      0.87743490
       4223.2900      0.94929010
       4224.7599      0.96684360
       4226.2300      0.95970620
       4227.7000      0.95835970
       4229.1700      0.94408650
       4230.6400      0.99186230
       4232.1100      0.97251930
       4233.5800      0.92595990
       4235.0500      0.92907910
       4236.5200      0.91262010
       4237.9900      0.88220070
       4239.4600      0.88414160
       4240.9300      0.95547560
       4242.4000       1.0299030
       4243.8700      0.98671330
       4245.3400      0.91595560
       4246.8100      0.94585740
       4248.2800      0.97371480
       4249.7500      0.82399860
       4251.2200      0.70322870
       4252.6900      0.79673390
       4254.1600      0.84979690
       4255.6300      0.96450040
       4257.1000      0.93939690
       4258.5700      0.82144780
       4260.0400      0.88263300
       4261.5100      0.92887550
       4262.9800      0.88107860
       4264.4500      0.86177800
       4265.9200      0.89955280
       4267.3900      0.88193950
       4268.8600      0.79692860
       4270.3300      0.89465570
       4271.8000       1.0438220
       4273.2700       1.0549960
       4274.7400      0.94775520
       4276.2100      0.90325140
       4277.6800      0.92559470
       4279.1500      0.92034470
       4280.6200      0.89624510
       4282.0900      0.91945590
       4283.5600      0.88591490
       4285.0300      0.86660580
       4286.5000      0.96411400
       4287.9700      0.94237720
       4289.4400      0.97275700
       4290.9100       1.0387520
       4292.3800      0.96288190
       4293.8500      0.89461850
       4295.3200      0.91030010
       4296.7900      0.94192360
       4298.2600      0.95538700
       4299.7300      0.94334570
       4301.2000      0.89747390
       4302.6700      0.97353370
       4304.1400       1.0621020
       4305.6100       1.0417540
       4307.0800       1.0037030
       4308.5500      0.94989820
       4310.0200      0.86111580
       4311.4900      0.85326880
       4312.9600      0.88674910
       4314.4300      0.91040510
       4315.9000      0.86356880
       4317.3700      0.88832750
       4318.8400      0.95051420
       4320.3100      0.98576170
       4321.7800       1.0044460
       4323.2500      0.99661830
       4324.7200      0.98242570
       4326.1900      0.95599250
       4327.6600      0.93114180
       4329.1300      0.97445990
       4330.6000       1.0325270
       4332.0700       1.0617670
       4333.5400       1.1144900
       4335.0100       1.1419290
       4336.4800       1.1270780
       4337.9500       1.0645000
       4339.4200       1.0082050
       4340.8900       1.0191970
       4342.3600       1.0024910
       4343.8300       1.0708030
       4345.3000       1.0758790
       4346.7700       1.0638920
       4348.2400       1.0908390
       4349.7100       1.0076450
       4351.1800       1.0131860
       4352.6500       1.0065890
       4354.1200       1.0181280
       4355.5900       1.0850520
       4357.0600      0.99143500
       4358.5300      0.93678310
       4360.0000       1.0536160
       4361.4700       1.1419450
       4362.9400       1.1139400
