Units are: observed wavelength (Ang), observed flux (10^-15 erg/s/cm^2/Ang)
       4255.0000    -0.041291250
       4256.2698    -0.037153650
       4257.5397     0.015082730
       4258.8096     0.028715090
       4260.0794    0.0028949920
       4261.3493     0.010424930
       4262.6192     0.017852920
       4263.8891    0.0038944220
       4265.1589     0.010243520
       4266.4288    0.0071647430
       4267.6986    0.0029536840
       4268.9685     0.013856540
       4270.2383     0.025608160
       4271.5082     0.023923540
       4272.7780     0.017154690
       4274.0479     0.029881780
       4275.3177     0.038737940
       4276.5876     0.035355500
       4277.8574     0.022666920
       4279.1273    0.0079223220
       4280.3973    0.0024424850
       4281.6671   -0.0081969130
       4282.9370    0.0074995070
       4284.2068     0.029010530
       4285.4767     0.025370210
       4286.7465     0.024225800
       4288.0164     0.020550660
       4289.2862     0.014945260
       4290.5561     0.013655380
       4291.8259    0.0089926720
       4293.0958    0.0069519410
       4294.3656     0.020219580
       4295.6355     0.022598000
       4296.9054    0.0055189760
       4298.1753    0.0089822880
       4299.4451     0.032602270
       4300.7150     0.034344580
       4301.9849     0.012408960
       4303.2547    0.0082674320
       4304.5246     0.015566230
       4305.7944     0.014096940
       4307.0643     0.017875730
       4308.3341     0.020363370
       4309.6040    0.0066532700
       4310.8738   -0.0059763920
       4312.1437  -0.00080226270
       4313.4136    0.0093438950
       4314.6835    0.0062764680
       4315.9533   -0.0036269100
       4317.2232   -0.0082781800
       4318.4930    -0.012201430
       4319.7629    0.0024899250
       4321.0327    0.0083155320
       4322.3026   -0.0025010330
       4323.5725   -0.0032482790
       4324.8423     0.018120860
       4326.1122     0.024363900
       4327.3820    0.0046130840
       4328.6519    0.0048262700
       4329.9218     0.012977400
       4331.1917     0.013414240
       4332.4615    0.0070905220
       4333.7314   -0.0022273540
       4335.0012    0.0088391080
       4336.2711     0.030776000
       4337.5409     0.031207360
       4338.8108     0.014679150
       4340.0806    0.0095397750
       4341.3505     0.019758490
       4342.6203     0.016008050
       4343.8902    0.0055150360
       4345.1601     0.016172620
       4346.4299     0.023927350
       4347.6999    0.0086834930
       4348.9697     0.013808390
       4350.2396     0.028477080
       4351.5094     0.011294290
       4352.7793    0.0086368670
       4354.0491     0.018438610
       4355.3190     0.013213830
       4356.5888     0.012835710
       4357.8587     0.024567770
       4359.1285     0.022577300
       4360.3984     0.030534100
       4361.6682     0.025444590
       4362.9381     0.037272290
       4364.2080     0.049350020
       4365.4779   -0.0083393930
       4366.7478    -0.026588310
       4368.0176     0.023347020
       4369.2875     0.034224540
       4370.5573    0.0072548550
       4371.8272     0.014568820
       4373.0970     0.027998850
       4374.3669    0.0046193310
       4375.6367   -0.0065348080
       4376.9066     0.018020650
       4378.1764     0.021524690
       4379.4463   0.00086460080
       4380.7162    0.0010815240
       4381.9861     0.018514910
       4383.2559     0.020602210
       4384.5258  -0.00050136530
       4385.7956    0.0085421300
       4387.0655     0.033770150
       4388.3354     0.041120970
       4389.6052     0.034580990
       4390.8751     0.031522780
       4392.1449     0.044533740
       4393.4148     0.022693030
       4394.6846    0.0096003230
       4395.9545     0.030595280
       4397.2244     0.043255150
       4398.4943     0.031732280
       4399.7641    0.0068246740
       4401.0340    0.0062506300
       4402.3038     0.044205410
       4403.5737     0.046879050
       4404.8435     0.014069700
       4406.1134     0.013171270
       4407.3833     0.022546820
       4408.6531     0.015119500
       4409.9230     0.020405040
       4411.1928     0.027750950
       4412.4627     0.032780690
       4413.7325     0.031267400
       4415.0025     0.029732990
       4416.2723     0.010617320
       4417.5422     0.012821940
       4418.8120     0.033704990
       4420.0819     0.031294640
       4421.3517     0.013347430
       4422.6216    0.0087300080
       4423.8914     0.014352070
       4425.1613     0.015270530
       4426.4311     0.013236890
       4427.7010    0.0097106900
       4428.9709    0.0054373750
       4430.2407    0.0026604040
       4431.5107   -0.0049732900
       4432.7805    0.0095582590
       4434.0504     0.013694650
       4435.3202    0.0022570820
       4436.5901     0.018894260
       4437.8599     0.029216120
       4439.1298     0.020821240
       4440.3996     0.027495200
       4441.6695     0.028639300
       4442.9393     0.017148060
       4444.2092     0.019615660
       4445.4790     0.032510810
       4446.7489     0.035889580
       4448.0188     0.028972890
       4449.2887     0.032043980
       4450.5586     0.027593890
       4451.8284    0.0040324250
       4453.0983    0.0047692570
       4454.3681     0.022159160
       4455.6380     0.020151420
       4456.9078     0.036872510
       4458.1777     0.038929860
       4459.4475     0.015203880
       4460.7174    0.0035056270
       4461.9872    0.0040653210
       4463.2571    0.0081329060
       4464.5270     0.012503200
       4465.7969     0.032525700
       4467.0667     0.039971900
       4468.3366     0.035674900
       4469.6064     0.018340080
       4470.8763     0.012441220
       4472.1462     0.027552760
       4473.4160     0.036238300
       4474.6859     0.031288670
       4475.9557     0.013282490
       4477.2256     0.012507160
       4478.4954     0.041331310
       4479.7653     0.037891600
       4481.0351     0.020203850
       4482.3051     0.016418870
       4483.5749     0.023279740
       4484.8448     0.026429010
       4486.1146     0.031325730
       4487.3845     0.028002200
       4488.6543     0.022512080
       4489.9242     0.032534760
       4491.1940     0.030086820
       4492.4639     0.020922490
       4493.7338     0.031424440
       4495.0036     0.042770260
       4496.2735     0.028939140
       4497.5433     0.020466960
       4498.8133     0.031715040
       4500.0831     0.031157120
       4501.3530     0.030167510
       4502.6228     0.013710910
       4503.8927     0.014255550
       4505.1625     0.035431920
       4506.4324     0.031516480
       4507.7022     0.018791600
       4508.9721     0.017265050
       4510.2419     0.026363640
       4511.5118     0.042887810
       4512.7816     0.026853500
       4514.0515     0.014081550
       4515.3215     0.010913440
       4516.5913     0.023074970
       4517.8612     0.032172910
       4519.1310     0.022374710
       4520.4009     0.017712570
       4521.6707     0.013368330
       4522.9406     0.010467210
       4524.2104     0.014993340
       4525.4803     0.015590640
       4526.7501     0.024359060
       4528.0200     0.036379250
       4529.2898     0.027434350
       4530.5597     0.012343380
       4531.8296     0.011715540
       4533.0995     0.034470250
       4534.3693     0.042505340
       4535.6392     0.042428150
       4536.9091     0.046155550
       4538.1789     0.048073420
       4539.4488     0.031503630
       4540.7186     0.024463110
       4541.9885     0.034986780
       4543.2583     0.036697400
       4544.5282     0.031552480
       4545.7980     0.023566360
       4547.0679     0.029164390
       4548.3378     0.015965390
       4549.6077    0.0086829750
       4550.8775     0.033292230
       4552.1474     0.027502430
       4553.4172     0.019772600
       4554.6871     0.024723400
       4555.9569     0.036311770
       4557.2268     0.048290820
       4558.4967     0.035226650
       4559.7665     0.021560580
       4561.0364     0.045769450
       4562.3062     0.057274770
       4563.5761     0.050407770
       4564.8459     0.061460470
       4566.1159     0.055375730
       4567.3857     0.045472060
       4568.6556     0.036558800
       4569.9254     0.043462210
       4571.1953     0.060245340
       4572.4651     0.053593240
       4573.7350     0.043359270
       4575.0048     0.058815710
       4576.2747     0.063744590
       4577.5445     0.052619280
       4578.8144     0.051568290
       4580.0843     0.056355240
       4581.3541     0.062075030
       4582.6241     0.060275500
       4583.8939     0.059699430
       4585.1638     0.075626400
       4586.4336     0.077419000
       4587.7035     0.050882950
       4588.9733     0.049761420
       4590.2432     0.051320270
       4591.5130     0.069788290
       4592.7829     0.084371390
       4594.0527     0.067146130
       4595.3226     0.056058210
       4596.5924     0.051509450
       4597.8623     0.058195200
       4599.1322     0.068418120
       4600.4021     0.053372470
       4601.6720     0.046193420
       4602.9418     0.049347220
       4604.2117     0.046639910
       4605.4815     0.054345090
       4606.7514     0.052845840
       4608.0212     0.044836990
       4609.2911     0.040302030
       4610.5609     0.047050270
       4611.8308     0.064761980
       4613.1006     0.056926680
       4614.3705     0.044025040
       4615.6404     0.041955030
       4616.9103     0.039831980
       4618.1801     0.041686360
       4619.4500     0.041397850
       4620.7198     0.037066240
       4621.9897     0.040162410
       4623.2596     0.035542910
       4624.5294     0.033739410
       4625.7993     0.033510960
       4627.0691     0.030916560
       4628.3390     0.037384260
       4629.6088     0.041973620
       4630.8787     0.032246110
       4632.1485     0.026112860
       4633.4185     0.026063680
       4634.6883     0.022106710
       4635.9582     0.028285040
       4637.2280     0.030915530
       4638.4979     0.030256780
       4639.7677     0.036622770
       4641.0376     0.033606750
       4642.3074     0.041354780
       4643.5773     0.046007620
       4644.8472     0.035100370
       4646.1170     0.033106510
       4647.3869     0.028790150
       4648.6567     0.025662190
       4649.9267     0.025356080
       4651.1965     0.022328050
       4652.4664     0.024542200
       4653.7362     0.033601500
       4655.0061     0.039175090
       4656.2759     0.029370400
       4657.5458     0.026625770
       4658.8156     0.028717850
       4660.0855     0.023211370
       4661.3553     0.011113860
       4662.6252     0.011515150
       4663.8950     0.021361060
       4665.1649     0.024192090
       4666.4349     0.024147770
       4667.7047     0.013916840
       4668.9746     0.020385040
       4670.2444     0.029881440
       4671.5143     0.027635080
       4672.7841     0.028004070
       4674.0540     0.025902940
       4675.3238     0.028103270
       4676.5937     0.037978620
       4677.8635     0.031735520
       4679.1334     0.022957040
       4680.4032     0.022116500
       4681.6731     0.032522310
       4682.9430     0.041041770
       4684.2129     0.034049780
       4685.4827     0.024930950
       4686.7526     0.028468440
       4688.0225     0.026589200
       4689.2923     0.021519550
       4690.5622     0.029353220
       4691.8320     0.035487940
       4693.1019     0.032258440
       4694.3717     0.027059270
       4695.6416     0.027008790
       4696.9114     0.028212820
       4698.1813     0.027995270
       4699.4511     0.028626380
       4700.7211     0.027461580
       4701.9909     0.037745160
       4703.2608     0.042092410
       4704.5306     0.028122310
       4705.8005     0.025692250
       4707.0703     0.042613470
       4708.3402     0.050429240
       4709.6101     0.044044960
       4710.8799     0.038710190
       4712.1498     0.025829350
       4713.4196     0.018047480
       4714.6895     0.021567480
       4715.9593     0.018401790
       4717.2293     0.017496900
       4718.4991     0.021564150
       4719.7690     0.023606190
       4721.0388     0.019237450
       4722.3087     0.014548960
       4723.5785     0.012655570
       4724.8484     0.020761340
       4726.1182     0.036241840
       4727.3881     0.027727610
       4728.6579     0.020684720
       4729.9278     0.028836860
       4731.1977     0.028390590
       4732.4675     0.021506640
       4733.7375     0.013475530
       4735.0073    0.0082590020
       4736.2772     0.017622690
       4737.5470     0.026156590
       4738.8169     0.029391900
       4740.0867     0.030401010
       4741.3566     0.034225240
       4742.6264     0.034205750
       4743.8963     0.031768170
       4745.1661     0.031346360
       4746.4360     0.024192120
       4747.7058     0.010858020
       4748.9757     0.010825660
       4750.2456     0.021406020
       4751.5155     0.028821130
       4752.7854     0.032299720
       4754.0552     0.034049070
       4755.3251     0.034649030
       4756.5949     0.025488590
       4757.8648     0.014981100
       4759.1346     0.014037040
       4760.4045     0.019968540
       4761.6743     0.023179010
       4762.9442     0.021154310
       4764.2140     0.020603010
       4765.4839     0.023504950
       4766.7537     0.017319840
       4768.0237    0.0071938620
       4769.2935    0.0088214260
       4770.5634     0.016260130
       4771.8332     0.022315270
       4773.1031     0.022048960
       4774.3730     0.025251390
       4775.6428     0.027785830
       4776.9127     0.025374770
       4778.1825     0.022204590
       4779.4524     0.014943390
       4780.7222     0.014754710
       4781.9921     0.018789990
       4783.2619     0.020873300
       4784.5319     0.024275480
       4785.8017     0.026359050
       4787.0716     0.035283090
       4788.3414     0.038612890
       4789.6113     0.030593940
       4790.8811     0.022445970
       4792.1510     0.021555310
       4793.4208     0.027583240
       4794.6907     0.023012450
       4795.9606    0.0080810840
       4797.2304    0.0078451770
       4798.5003     0.017210160
       4799.7701     0.014622150
       4801.0401     0.015605810
       4802.3099     0.024235680
       4803.5798     0.022945940
       4804.8496     0.015421800
       4806.1195     0.012233280
       4807.3893     0.017728290
       4808.6592     0.026206380
       4809.9290     0.022957690
       4811.1989     0.014643560
       4812.4687     0.014641250
       4813.7386     0.025200050
       4815.0084     0.030211540
       4816.2783     0.025110910
       4817.5483     0.021894670
       4818.8181     0.024478240
       4820.0880     0.029098360
       4821.3578     0.024662440
       4822.6277     0.015057660
       4823.8975     0.017933840
       4825.1674     0.023894690
       4826.4372     0.017668660
       4827.7071     0.016047970
       4828.9769     0.030845730
       4830.2468     0.034729150
       4831.5166     0.016642410
       4832.7865    0.0085012770
       4834.0564     0.022369510
       4835.3263     0.033817680
       4836.5962     0.029103850
       4837.8660     0.026258780
       4839.1359     0.022904180
       4840.4057     0.011036380
       4841.6756    0.0086188710
       4842.9454    0.0084387220
       4844.2153    0.0052520380
       4845.4851     0.013523000
       4846.7550     0.023416250
       4848.0248     0.027465930
       4849.2947     0.023776810
       4850.5645    0.0098779170
       4851.8345     0.010219690
       4853.1043     0.022768140
       4854.3742     0.022264840
       4855.6440     0.020054620
       4856.9139     0.020339640
       4858.1838     0.020310740
       4859.4536     0.026318150
       4860.7235     0.027183100
       4861.9933     0.023110060
       4863.2632     0.024332040
       4864.5330     0.028489540
       4865.8029     0.025538930
       4867.0727     0.020253340
       4868.3427     0.025267710
       4869.6125     0.028883920
       4870.8824     0.031818320
       4872.1522     0.032460540
       4873.4221     0.025298720
       4874.6919     0.019792630
       4875.9618     0.018666550
       4877.2316     0.024857740
       4878.5015     0.028303360
       4879.7714     0.026203890
       4881.0412     0.036755880
       4882.3111     0.062106650
       4883.5809     0.085586210
       4884.8509     0.077511290
       4886.1207     0.069662130
       4887.3906     0.061812970
       4888.6604     0.053966840
       4889.9303     0.046117670
       4891.2001     0.038268520
       4892.4700     0.030419360
       4893.7398     0.022573220
       4895.0097     0.014724060
       4896.2795     0.016381420
       4897.5494     0.019893830
       4898.8192     0.021935990
       4900.0891     0.022017290
       4901.3591     0.019250300
       4902.6289     0.014231140
       4903.8988     0.011634820
       4905.1686     0.023781100
       4906.4385     0.038194270
       4907.7083     0.031583750
       4908.9782     0.026379380
       4910.2480     0.032097890
       4911.5179     0.028706280
       4912.7877     0.021145310
       4914.0576     0.018495270
       4915.3274     0.012043150
       4916.5973    0.0075945490
       4917.8671     0.015334000
       4919.1371     0.025827910
       4920.4069     0.027889100
       4921.6768     0.020292190
       4922.9467     0.013254910
       4924.2165     0.011639880
       4925.4864     0.019221100
       4926.7562     0.027393610
       4928.0261     0.025092850
       4929.2959     0.016457900
       4930.5658     0.010787300
       4931.8356     0.011098790
       4933.1055     0.015668240
       4934.3753     0.027868350
       4935.6453     0.035851490
       4936.9151     0.026016310
       4938.1850     0.018656450
       4939.4548     0.019576550
       4940.7247     0.021150590
       4941.9945     0.014291900
       4943.2644     0.012700770
       4944.5343     0.019836850
       4945.8041     0.024521000
       4947.0740     0.028082080
       4948.3438     0.036068310
       4949.6137     0.040632620
       4950.8835     0.029244990
       4952.1535     0.020269510
       4953.4233     0.024910070
       4954.6932     0.020695840
       4955.9630     0.013464630
       4957.2329     0.014694040
       4958.5027     0.014963600
       4959.7726     0.019526580
       4961.0424     0.029512230
       4962.3123     0.028001550
       4963.5821     0.025250800
       4964.8520     0.022792760
       4966.1219     0.020736720
       4967.3917     0.018294980
       4968.6617     0.021299620
       4969.9315     0.026683100
       4971.2014     0.024693940
       4972.4712     0.025892130
       4973.7411     0.029609760
       4975.0109     0.022229670
       4976.2808     0.025477840
       4977.5506     0.032268650
       4978.8205     0.021112050
       4980.0903     0.028496270
       4981.3602     0.076487410
       4982.6300      0.13096070
       4983.8999      0.13650880
       4985.1697     0.087207730
       4986.4397     0.040215150
       4987.7096     0.017944580
       4988.9794     0.015468500
       4990.2493     0.019271590
       4991.5191     0.011950260
       4992.7890     0.015062640
       4994.0588     0.015373190
       4995.3287     0.012450000
       4996.5985     0.022829980
       4997.8684     0.018113480
       4999.1382     0.013982040
       5000.4081     0.022032270
       5001.6779     0.020005310
       5002.9479     0.017862600
       5004.2177     0.025558550
       5005.4876     0.022837750
       5006.7574     0.018741490
       5008.0273     0.022807870
       5009.2972     0.017568000
       5010.5670     0.011996210
       5011.8369     0.017022730
       5013.1067     0.020697360
       5014.3766     0.018490770
       5015.6464     0.018979880
       5016.9163     0.017072410
       5018.1861     0.011060180
       5019.4561     0.020079340
