Units are: observed wavelength (Ang), observed flux (10^-15 erg/s/cm^2/Ang)
       3321.0000     0.045843321
       3322.9500     0.051268451
       3324.9000     0.069224061
       3326.8500     0.062016491
       3328.8000     0.054226221
       3330.7500     0.043378001
       3332.7000     0.051869031
       3334.6500     0.062751641
       3336.6000     0.079658251
       3338.5500     0.072152921
       3340.5000     0.074948301
       3342.4500     0.065774821
       3344.4000     0.069731281
       3346.3500     0.073627541
       3348.3000     0.074430411
       3350.2500     0.081389651
       3352.2000     0.069753881
       3354.1500     0.075413011
       3356.1000     0.080884781
       3358.0500     0.062937341
       3360.0000     0.059411261
       3361.9500     0.070930111
       3363.9000     0.071001771
       3365.8500     0.080592191
       3367.8000     0.086066261
       3369.7500     0.075751611
       3371.7000     0.074225921
       3373.6500     0.085737021
       3375.6000     0.081942861
       3377.5500     0.067264931
       3379.5000     0.069754851
       3381.4500     0.076386421
       3383.4000     0.076963721
       3385.3500     0.079682431
       3387.3000     0.078800491
       3389.2500     0.094637501
       3391.2000     0.098101431
       3393.1500     0.084766661
       3395.1000     0.082325111
       3397.0500     0.080305641
       3399.0000     0.077416931
       3400.9500     0.074242061
       3402.9000     0.083802081
       3404.8500     0.078621641
       3406.8000     0.056016601
       3408.7500     0.063035481
       3410.7000     0.083019451
       3412.6500     0.087248651
       3414.6000     0.087469041
       3416.5500     0.082289471
       3418.5000     0.081553671
       3420.4501     0.069023031
       3422.4000     0.067404331
       3424.3500     0.082391251
       3426.3000      0.10027640
       3428.2500      0.10051830
       3430.2000     0.097838411
       3432.1500      0.10395980
       3434.1000     0.089051911
       3436.0500     0.090701061
       3438.0000      0.11152730
       3439.9500     0.098162251
       3441.9000     0.075375061
       3443.8500     0.099092141
       3445.8000      0.11192660
       3447.7500      0.10155240
       3449.7000     0.096018301
       3451.6500     0.086940861
       3453.6000     0.094728491
       3455.5500     0.095150211
       3457.5000     0.095829571
       3459.4500      0.11788860
       3461.4000      0.12194110
       3463.3500      0.11001220
       3465.3000      0.11089250
       3467.2500      0.10626310
       3469.2000      0.10900800
       3471.1500      0.11134030
       3473.1000      0.11133740
       3475.0500      0.10892970
       3477.0000     0.097520391
       3478.9500      0.10385390
       3480.9000      0.10333650
       3482.8500      0.11195660
       3484.8000      0.10368030
       3486.7500     0.085601181
       3488.7000      0.10286470
       3490.6500     0.096347051
       3492.6000     0.094033311
       3494.5500     0.082768181
       3496.5000     0.087750421
       3498.4500     0.098990301
       3500.4000     0.089880801
       3502.3500     0.085268371
       3504.3000     0.095083751
       3506.2500     0.080524361
       3508.2000     0.082384651
       3510.1500     0.099244431
       3512.1000     0.088587991
       3514.0500     0.078046551
       3516.0000     0.092588161
       3517.9500     0.083697181
       3519.9000     0.071440961
       3521.8500     0.082182441
       3523.8000     0.076853771
       3525.7499     0.078830401
       3527.7000     0.073371601
       3529.6500     0.075130961
       3531.6000     0.083739891
       3533.5500     0.098629331
       3535.5000     0.097398931
       3537.4500     0.093436631
       3539.4000     0.098938171
       3541.3500     0.097897711
       3543.3000     0.086448821
       3545.2500     0.082034181
       3547.2000     0.092140921
       3549.1500      0.10619100
       3551.1000      0.10430430
       3553.0500     0.093547001
       3555.0000     0.091957771
       3556.9500     0.098693691
       3558.9000      0.10061380
       3560.8500      0.11137130
       3562.8000      0.11907710
       3564.7500      0.11854950
       3566.7000      0.11454830
       3568.6500      0.10126090
       3570.6000      0.10361830
       3572.5500      0.10657620
       3574.5000      0.10592400
       3576.4500      0.11370190
       3578.4000      0.11677770
       3580.3500      0.10666030
       3582.3000      0.10534410
       3584.2500      0.11100250
       3586.2000      0.10821840
       3588.1500      0.11299200
       3590.1000      0.11968070
       3592.0500      0.11285480
       3594.0000      0.11293590
       3595.9500      0.12393040
       3597.9000      0.11689270
       3599.8500      0.10221270
       3601.8000      0.10998040
       3603.7500      0.11690590
       3605.7000      0.11449920
       3607.6500      0.11118700
       3609.6000      0.10758850
       3611.5500      0.11967500
       3613.5000      0.12132710
       3615.4500      0.12182410
       3617.4000      0.12089360
       3619.3500      0.11619660
       3621.3000      0.11845350
       3623.2500      0.10737880
       3625.2000     0.094745171
       3627.1500      0.10702000
       3629.1000      0.11115190
       3631.0500     0.095317851
       3633.0000     0.091214071
       3634.9500      0.10602720
       3636.9000      0.11508580
       3638.8500      0.11728850
       3640.8000      0.11384890
       3642.7500      0.10426970
       3644.7000      0.10429170
       3646.6500      0.10513660
       3648.6000      0.10358390
       3650.5500      0.11401760
       3652.5000      0.11724120
       3654.4500      0.11661350
       3656.4000      0.12245550
       3658.3500      0.12786510
       3660.3000      0.12838950
       3662.2500      0.11666450
       3664.2000      0.11658150
       3666.1500      0.12540420
       3668.1000      0.11910220
       3670.0500      0.11362770
       3672.0000      0.12035420
       3673.9500      0.13393770
       3675.9000      0.13558630
       3677.8500      0.13671060
       3679.8000      0.13550730
       3681.7500      0.13881550
       3683.7000      0.13250230
       3685.6500      0.13823050
       3687.6000      0.14626950
       3689.5500      0.14193530
       3691.5000      0.15170170
       3693.4500      0.15088640
       3695.4000      0.14190820
       3697.3500      0.13925400
       3699.3000      0.14432390
       3701.2500      0.15697690
       3703.2000      0.15714790
       3705.1500      0.15472950
       3707.1000      0.16217060
       3709.0500      0.16384270
       3711.0000      0.16443050
       3712.9500      0.16181290
       3714.9000      0.17132690
       3716.8500      0.16496540
       3718.8000      0.14982040
       3720.7500      0.16401700
       3722.7000      0.16623650
       3724.6500      0.15762820
       3726.6000      0.16596080
       3728.5500      0.17589820
       3730.5000      0.16834710
       3732.4500      0.15826850
       3734.4000      0.15410570
       3736.3500      0.15539590
       3738.3000      0.16100520
       3740.2500      0.15739080
       3742.2000      0.16778140
       3744.1500      0.20713800
       3746.1000      0.20881580
       3748.0500      0.17721760
       3750.0000      0.16778320
       3751.9500      0.16419440
       3753.9000      0.16038150
       3755.8500      0.15983630
       3757.8000      0.15495950
       3759.7500      0.15012420
       3761.7000      0.15547490
       3763.6500      0.14658950
       3765.6000      0.13523510
       3767.5500      0.14632230
       3769.5000      0.13818440
       3771.4500      0.12877210
       3773.4000      0.14451410
       3775.3500      0.14420050
       3777.3000      0.12848970
       3779.2500      0.12142950
       3781.2000      0.11895340
       3783.1500      0.12297110
       3785.1000      0.12443650
       3787.0500      0.11751100
       3789.0000      0.11541140
       3790.9500      0.10780250
       3792.9000     0.094062261
       3794.8500     0.094558961
       3796.8000     0.098877421
       3798.7500     0.096419331
       3800.7000      0.10114960
       3802.6500      0.10167980
       3804.6000     0.090318331
       3806.5500     0.088494411
       3808.5000     0.090943741
       3810.4500     0.084889171
       3812.4000     0.087256881
       3814.3500     0.090472301
       3816.3000     0.084175451
       3818.2500     0.077828061
       3820.2000     0.076975891
       3822.1500     0.073783251
       3824.1000     0.065343691
       3826.0500     0.071930101
       3828.0000     0.076409531
       3829.9500     0.067839171
       3831.9000     0.062869421
       3833.8500     0.053971931
       3835.8000     0.052441331
       3837.7500     0.055691871
       3839.7000     0.056752431
       3841.6500     0.061507731
       3843.6000     0.057114541
       3845.5500     0.061395381
       3847.5000     0.069928161
       3849.4500     0.062542611
       3851.4000     0.059568041
       3853.3500     0.068715391
       3855.3000     0.064149131
       3857.2500     0.060761651
       3859.2000     0.062308381
       3861.1500     0.066888581
       3863.1000     0.073908621
       3865.0500     0.072652081
       3867.0000     0.077186911
       3868.9500     0.076412521
       3870.9000     0.084533241
       3872.8500     0.091526041
       3874.8000     0.086813521
       3876.7500     0.095944751
       3878.7000      0.10260410
       3880.6500      0.10880590
       3882.6000      0.11184570
       3884.5500      0.11849600
       3886.5000      0.13155750
       3888.4500      0.14232790
       3890.4000      0.14198280
       3892.3500      0.14857120
       3894.3000      0.14921000
       3896.2500      0.14138990
       3898.2000      0.15884490
       3900.1500      0.17692320
       3902.1000      0.18422380
       3904.0500      0.19118380
       3906.0000      0.19718650
       3907.9500      0.20484550
       3909.9000      0.22382710
       3911.8500      0.23873460
       3913.8000      0.24363070
       3915.7500      0.25010230
       3917.7000      0.26063040
       3919.6500      0.26970730
       3921.6000      0.27299730
       3923.5500      0.28580710
       3925.5000      0.29325140
       3927.4500      0.29295080
       3929.4000      0.30608330
       3931.3500      0.29850490
       3933.3000      0.30336410
       3935.2500      0.31827630
       3937.2000      0.32369070
       3939.1500      0.33798241
       3941.1000      0.35716961
       3943.0500      0.34727091
       3945.0000      0.34593191
       3946.9500      0.36016741
       3948.9000      0.35030351
       3950.8500      0.32872220
       3952.8000      0.33138870
       3954.7500      0.34947651
       3956.7000      0.35906251
       3958.6500      0.36247361
       3960.6000      0.37156361
       3962.5500      0.35933631
       3964.5000      0.36676211
       3966.4500      0.37621191
       3968.4000      0.36365451
       3970.3500      0.35826801
       3972.3000      0.36924781
       3974.2500      0.36779221
       3976.2000      0.36604811
       3978.1500      0.37732111
       3980.1000      0.38447771
       3982.0500      0.38223301
       3984.0000      0.37937181
       3985.9500      0.38238761
       3987.9000      0.38341321
       3989.8500      0.38665651
       3991.8000      0.39924021
       3993.7500      0.40887191
       3995.7000      0.41402231
       3997.6500      0.39651971
       3999.6000      0.38779111
       4001.5500      0.40693961
       4003.5000      0.41401771
       4005.4500      0.40281411
       4007.4000      0.40332771
       4009.3500      0.40873201
       4011.3000      0.40812171
       4013.2500      0.39904471
       4015.2000      0.40974661
       4017.1500      0.40621641
       4019.1000      0.40216421
       4021.0500      0.42117651
       4023.0000      0.41753081
       4024.9500      0.40582331
       4026.9000      0.39597361
       4028.8500      0.40737391
       4030.8000      0.41209431
       4032.7500      0.40286341
       4034.7000      0.39622061
       4036.6500      0.41012671
       4038.6000      0.42103101
       4040.5500      0.41560841
       4042.5000      0.42838531
       4044.4500      0.43451321
       4046.4000      0.41931431
       4048.3500      0.42680941
       4050.3000      0.43819401
       4052.2500      0.43798421
       4054.2000      0.42855161
       4056.1500      0.42236291
       4058.1000      0.42912241
       4060.0500      0.44486481
       4062.0000      0.43981691
       4063.9500      0.43348721
       4065.9000      0.40884741
       4067.8500      0.42573881
       4069.8000      0.43010761
       4071.7500      0.42154311
       4073.7000      0.39858451
       4075.6500      0.39028371
       4077.6000      0.37912891
       4079.5500      0.38829321
       4081.5000      0.38533341
       4083.4500      0.37747101
       4085.4000      0.36532301
       4087.3500      0.35606381
       4089.3000      0.34269911
       4091.2500      0.32389220
       4093.2000      0.32538440
       4095.1500      0.31651380
       4097.1000      0.30115990
       4099.0500      0.30167150
       4101.0000      0.30653520
       4102.9500      0.29909170
       4104.9000      0.29952690
       4106.8500      0.30068150
       4108.8000      0.30425760
       4110.7500      0.30033070
       4112.7000      0.29297980
       4114.6500      0.27997980
       4116.6000      0.27605980
       4118.5500      0.27994990
       4120.5000      0.27019620
       4122.4500      0.27499170
       4124.4000      0.27170250
       4126.3500      0.27999840
       4128.3000      0.27334370
       4130.2500      0.27099320
       4132.2000      0.26854620
       4134.1500      0.27098570
       4136.1000      0.26364040
       4138.0500      0.25552520
       4140.0000      0.26125410
       4141.9500      0.27245240
       4143.9000      0.27017020
       4145.8500      0.26318880
       4147.8000      0.26440510
       4149.7500      0.26061640
       4151.7000      0.25731250
       4153.6500      0.25832100
       4155.6000      0.26132930
       4157.5500      0.26575330
       4159.5000      0.25676800
       4161.4500      0.25574320
       4163.4000      0.25906510
       4165.3500      0.25396070
       4167.3000      0.25484390
       4169.2500      0.24237980
       4171.2000      0.22065110
       4173.1500      0.21730680
       4175.1000      0.22952960
       4177.0500      0.23312470
       4179.0000      0.22857770
       4180.9500      0.22221260
       4182.9000      0.20684800
       4184.8500      0.19463130
       4186.8000      0.19186730
       4188.7500      0.19344740
       4190.7000      0.19285200
       4192.6500      0.19441680
       4194.6000      0.20238900
       4196.5500      0.19311640
       4198.5000      0.18943020
       4200.4500      0.19953820
       4202.4000      0.19487670
       4204.3500      0.19886210
       4206.3000      0.20454740
       4208.2500      0.20862320
       4210.2000      0.21159530
       4212.1500      0.22184310
       4214.1000      0.21897320
       4216.0500      0.21404420
       4218.0000      0.21826420
       4219.9500      0.22441080
       4221.9000      0.22821630
       4223.8500      0.22692430
       4225.8000      0.23396670
       4227.7500      0.22299860
       4229.7000      0.22707920
       4231.6500      0.23951940
       4233.6000      0.23913060
       4235.5500      0.23541730
       4237.5000      0.23403870
       4239.4500      0.24564200
       4241.4000      0.24734620
       4243.3500      0.24908060
       4245.3000      0.24177340
       4247.2500      0.23712890
       4249.2000      0.24061680
       4251.1500      0.25316820
       4253.1000      0.25268030
       4255.0500      0.24480740
       4257.0000      0.24912880
       4258.9500      0.25818970
       4260.9000      0.25966080
       4262.8500      0.26191090
       4264.8000      0.25623900
       4266.7500      0.26765280
       4268.7000      0.26675630
       4270.6500      0.26347940
       4272.6000      0.26206400
       4274.5500      0.27052710
       4276.5000      0.28132390
       4278.4500      0.27771940
       4280.4000      0.27926920
       4282.3500      0.27522040
       4284.3000      0.28331680
       4286.2500      0.28622620
       4288.2000      0.27080860
       4290.1500      0.27053030
       4292.1000      0.28156360
       4294.0500      0.28638230
       4296.0000      0.28487520
       4297.9500      0.26967770
       4299.9000      0.27442120
       4301.8500      0.28811350
       4303.8000      0.29152260
       4305.7500      0.28896650
       4307.7000      0.27435370
       4309.6500      0.28439310
       4311.6000      0.27338770
       4313.5500      0.29284190
       4315.5000      0.29078980
       4317.4500      0.29577450
       4319.4000      0.28038830
       4321.3500      0.29458710
       4323.3000      0.28805240
       4325.2500      0.29151130
       4327.2000      0.29880520
       4329.1500      0.29521760
       4331.1000      0.29434540
       4333.0500      0.28909830
       4335.0000      0.29195260
       4336.9500      0.28415070
       4338.9000      0.27917670
       4340.8500      0.28541900
       4342.8000      0.28437970
       4344.7500      0.29019000
       4346.7000      0.28911400
       4348.6500      0.28778610
       4350.6000      0.29459660
       4352.5500      0.28246600
       4354.5001      0.28487100
       4356.4500      0.30211970
       4358.4000      0.30439440
       4360.3500      0.30061760
       4362.3000      0.29516550
       4364.2500      0.29670620
       4366.2000      0.28740630
       4368.1500      0.28653930
       4370.1000      0.30391010
       4372.0500      0.31152440
       4374.0000      0.31549070
       4375.9500      0.31210490
       4377.9000      0.31104280
       4379.8500      0.29717610
       4381.8000      0.30237410
       4383.7500      0.32129730
       4385.7000      0.32038580
       4387.6500      0.31756940
       4389.6000      0.31920940
       4391.5500      0.31229810
       4393.5000      0.32355910
       4395.4500      0.32299120
       4397.4000      0.31525200
       4399.3500      0.30686250
       4401.3000      0.30268820
       4403.2500      0.30384660
       4405.2000      0.30569620
       4407.1500      0.30391220
       4409.1000      0.29927960
       4411.0500      0.29210260
       4413.0000      0.29640630
       4414.9500      0.30331480
       4416.9000      0.29555450
       4418.8500      0.28307550
       4420.8000      0.28382770
       4422.7500      0.29873790
       4424.7000      0.29808320
       4426.6500      0.27827240
       4428.6000      0.28405370
       4430.5500      0.28764170
       4432.5000      0.27324320
       4434.4500      0.27745060
       4436.4000      0.27828590
       4438.3500      0.27339500
       4440.3000      0.27196370
       4442.2500      0.26197090
       4444.2000      0.25120790
       4446.1500      0.25734620
       4448.1000      0.25488180
       4450.0500      0.25821300
       4452.0000      0.26309740
       4453.9500      0.25374660
       4455.9000      0.25893780
       4457.8500      0.26249600
       4459.7999      0.26142200
       4461.7500      0.26421320
       4463.7000      0.26766220
       4465.6500      0.25764580
       4467.6000      0.26050490
       4469.5500      0.26414180
       4471.5000      0.26049950
       4473.4500      0.26181440
       4475.4000      0.26806240
       4477.3500      0.27175770
       4479.3000      0.26660740
       4481.2500      0.26433730
       4483.2000      0.27552440
       4485.1500      0.27644620
       4487.1000      0.27795920
       4489.0500      0.28851930
       4491.0000      0.28217760
       4492.9500      0.28618440
       4494.9000      0.29969690
