Units are: observed wavelength (Ang), observed flux (10^-15 erg/s/cm^2/Ang)
       3473.0000   -0.0070870180
       3474.4700   -0.0066015210
       3475.9400     0.065449100
       3477.4100      0.19707990
       3478.8800     0.066160120
       3480.3500     0.024430220
       3481.8200      0.31205620
       3483.2900      0.12746990
       3484.7600     -0.38168900
       3486.2300     -0.37059680
       3487.7000     -0.14888350
       3489.1700      0.13518360
       3490.6400     0.093975660
       3492.1100    -0.079570880
       3493.5800      0.11562000
       3495.0500      0.16083280
       3496.5200     -0.10085380
       3497.9900    -0.018987330
       3499.4600     0.022624210
       3500.9300    -0.037925030
       3502.4000     -0.17061980
       3503.8700    -0.018763390
       3505.3400      0.12452000
       3506.8100      0.13143650
       3508.2800    -0.061921080
       3509.7500    -0.095578670
       3511.2200      0.36094540
       3512.6900      0.10337720
       3514.1600     -0.33936340
       3515.6300     -0.28480970
       3517.1000     0.014169950
       3518.5700      0.30493320
       3520.0400      0.17872110
       3521.5100      0.17279530
       3522.9800      0.10194530
       3524.4500      0.53863770
       3525.9200       1.0341100
       3527.3900      0.25529550
       3528.8600    -0.014004760
       3530.3300     0.091233500
       3531.8000    -0.049728210
       3533.2700     -0.21632200
       3534.7400     -0.23971110
       3536.2100     -0.18821700
       3537.6800     -0.18812060
       3539.1500      0.17724990
       3540.6200      0.15709660
       3542.0900     0.067748870
       3543.5600     0.045020350
       3545.0300      0.16132380
       3546.5000     -0.10960460
       3547.9700      0.25261890
       3549.4400      0.70369220
       3550.9100      0.10449330
       3552.3800   -0.0082361400
       3553.8500     -0.15733800
       3555.3200     -0.22823170
       3556.7900    -0.027214950
       3558.2600     0.079683560
       3559.7300     0.098451060
       3561.2000    -0.028241000
       3562.6700     0.016314600
       3564.1400     0.088669680
       3565.6100    -0.063441020
       3567.0800     -0.27380670
       3568.5500     0.052650010
       3570.0200      0.23147140
       3571.4900     0.098292160
       3572.9600    -0.014210320
       3574.4300      0.10723630
       3575.9000      0.13056860
       3577.3700     0.024486230
       3578.8400      0.28136840
       3580.3100      0.69165600
       3581.7800      0.42452530
       3583.2500     0.044207190
       3584.7200      0.42707810
       3586.1900      0.29300120
       3587.6600    -0.048110530
       3589.1300     0.057352680
       3590.6000      0.11803800
       3592.0700      0.10452770
       3593.5400      0.13781630
       3595.0100      0.31189440
       3596.4800      0.10965300
       3597.9500      0.20211910
       3599.4200      0.72731940
       3600.8900      0.44618550
       3602.3600     -0.10958850
       3603.8300      0.18274200
       3605.3000    0.0034848930
       3606.7700      0.17033310
       3608.2400      0.21104510
       3609.7100      0.12613540
       3611.1800    -0.043727790
       3612.6500    -0.073633250
       3614.1200      0.37224020
       3615.5900       1.3584930
       3617.0600      0.14014930
       3618.5300     0.019674240
       3620.0000      0.18773190
       3621.4700      0.28339780
       3622.9400      0.30432730
       3624.4100      0.12349960
       3625.8800      0.16506380
       3627.3500      0.11151060
       3628.8200      0.11672690
       3630.2900      0.13231820
       3631.7600      0.24509030
       3633.2300     0.080534950
       3634.7000      0.11523700
       3636.1700     0.066338020
       3637.6400      0.41244330
       3639.1100      0.56717410
       3640.5800     0.017689150
       3642.0500      0.16831190
       3643.5200      0.40913150
       3644.9900      0.52036780
       3646.4600      0.26322160
       3647.9300      0.61964210
       3649.4000      0.25680010
       3650.8700      0.10248120
       3652.3400      0.18760220
       3653.8100     0.092118920
       3655.2800      0.19372190
       3656.7500      0.18110080
       3658.2200      0.10364810
       3659.6900      0.24964940
       3661.1600      0.20104620
       3662.6300      0.14795100
       3664.1000      0.32359740
       3665.5700      0.35463520
       3667.0400      0.43563260
       3668.5100      0.16297600
       3669.9800      0.15587330
       3671.4500      0.68659460
       3672.9200      0.61341370
       3674.3900      0.34716330
       3675.8600      0.31415080
       3677.3300      0.49732750
       3678.8000      0.30960100
       3680.2700      0.40641730
       3681.7400     0.080942270
       3683.2100      0.11117220
       3684.6800     0.074758220
       3686.1500      0.60945920
       3687.6200       1.8316690
       3689.0900      0.39612550
       3690.5600     0.040708030
       3692.0300      0.17510420
       3693.5000      0.25341650
       3694.9700      0.36192800
       3696.4400      0.66485210
       3697.9100      0.37514990
       3699.3800    0.0034355250
       3700.8500    -0.038046130
       3702.3200      0.16173380
       3703.7900    -0.040234540
       3705.2600     0.053901990
       3706.7300      0.22128970
       3708.2000      0.24594860
       3709.6700      0.19280070
       3711.1400     0.081955500
       3712.6100      0.16821450
       3714.0800      0.36795410
       3715.5500      0.18690270
       3717.0200      0.30243810
       3718.4900      0.21023820
       3719.9600      0.21840490
       3721.4300    -0.027369980
       3722.9000      0.15308280
       3724.3700      0.20528960
       3725.8400     0.025918840
       3727.3100      0.27662390
       3728.7800      0.37508260
       3730.2500      0.19798580
       3731.7200      0.14050620
       3733.1900     0.041078090
       3734.6600   -0.0058251980
       3736.1300      0.30147710
       3737.6000      0.39057550
       3739.0700      0.31341850
       3740.5400      0.36348640
       3742.0100      0.63133140
       3743.4800      0.59375070
       3744.9501      0.25451760
       3746.4200      0.20739820
       3747.8900      0.10971860
       3749.3600      0.14222330
       3750.8300      0.17270200
       3752.3000     0.081076260
       3753.7700     0.084176640
       3755.2400      0.21102330
       3756.7100      0.51298200
       3758.1800      0.31269650
       3759.6500      0.11918720
       3761.1200     0.033781450
       3762.5900     0.074818850
       3764.0600      0.58388890
       3765.5300      0.44550260
       3767.0000     0.069059420
       3768.4700      0.34919290
       3769.9400      0.32634400
       3771.4100      0.56452010
       3772.8800      0.30611430
       3774.3500     0.084830490
       3775.8200      0.14358240
       3777.2900      0.24915960
       3778.7600      0.33928210
       3780.2300     0.015753350
       3781.7000      0.13132770
       3783.1700      0.21247580
       3784.6400      0.17659580
       3786.1100     0.077461820
       3787.5800      0.11091880
       3789.0500     0.065024320
       3790.5200     0.018518270
       3791.9900      0.19936630
       3793.4600      0.22984440
       3794.9300      0.22489060
       3796.4000      0.19651850
       3797.8700      0.13680500
       3799.3400     0.081543620
       3800.8100      0.26407360
       3802.2800      0.49988220
       3803.7500      0.29038460
       3805.2200      0.26579560
       3806.6900      0.16062310
       3808.1600      0.21532640
       3809.6300      0.20334650
       3811.1000      0.21182220
       3812.5700     0.067162870
       3814.0400      0.10959880
       3815.5100      0.32374780
       3816.9800     0.096870480
       3818.4500    0.0049803710
       3819.9200      0.15805860
       3821.3900     0.091812420
       3822.8600     0.099427060
       3824.3300     0.084999220
       3825.8000      0.18387170
       3827.2700      0.14117020
       3828.7400      0.16456980
       3830.2100      0.23692570
       3831.6800      0.40076590
       3833.1500      0.36230760
       3834.6200     0.081466060
       3836.0900      0.15394980
       3837.5600     0.060835160
       3839.0300     0.051383770
       3840.5000      0.10159560
       3841.9700     0.052027310
       3843.4400      0.13273200
       3844.9100      0.29312430
       3846.3800      0.16586320
       3847.8500     0.036370810
       3849.3200     0.052509990
       3850.7900      0.16928770
       3852.2600      0.21358150
       3853.7300      0.21402340
       3855.2000      0.34396150
       3856.6700      0.26480340
       3858.1400      0.21414210
       3859.6100      0.19118010
       3861.0800      0.14014030
       3862.5500      0.18271720
       3864.0200      0.28535380
       3865.4900      0.14697220
       3866.9600      0.17624790
       3868.4300      0.31549560
       3869.9000      0.30559650
       3871.3700      0.38289910
       3872.8400      0.41477080
       3874.3100      0.18178130
       3875.7800      0.13394420
       3877.2500      0.22214060
       3878.7200      0.35573880
       3880.1900      0.53469130
       3881.6600      0.30190290
       3883.1300      0.25517670
       3884.6000      0.15662540
       3886.0700      0.22318790
       3887.5400      0.20578540
       3889.0100      0.17897490
       3890.4800      0.25320210
       3891.9500      0.16842610
       3893.4200      0.31231160
       3894.8900      0.24570210
       3896.3600      0.34653510
       3897.8300      0.51813440
       3899.3000      0.25688350
       3900.7700      0.38675300
       3902.2400      0.29025780
       3903.7100      0.41256080
       3905.1800      0.21725020
       3906.6500      0.32863240
       3908.1200      0.37554270
       3909.5900      0.22978440
       3911.0600      0.29865580
       3912.5300      0.28501690
       3914.0000      0.41902310
       3915.4700      0.50747140
       3916.9400      0.41847510
       3918.4100      0.32652240
       3919.8800      0.27853890
       3921.3500      0.37982270
       3922.8200      0.51079030
       3924.2900      0.42865030
       3925.7600      0.49639340
       3927.2300      0.33013220
       3928.7000      0.32324090
       3930.1700      0.37107150
       3931.6400      0.30679910
       3933.1100      0.47657500
       3934.5800      0.43067560
       3936.0500      0.28755440
       3937.5200      0.24181420
       3938.9900      0.28913270
       3940.4600      0.36703880
       3941.9300      0.48487780
       3943.4000      0.49322110
       3944.8700      0.35214180
       3946.3400      0.44399840
       3947.8100      0.49956590
       3949.2800      0.38202750
       3950.7500      0.47933230
       3952.2200      0.45607810
       3953.6900      0.36317400
       3955.1600      0.28302330
       3956.6300      0.35849240
       3958.1000      0.49221760
       3959.5700      0.57638210
       3961.0400      0.58247780
       3962.5100      0.49862130
       3963.9800      0.31485960
       3965.4500      0.30089210
       3966.9200      0.44554120
       3968.3900      0.68637460
       3969.8600      0.40023640
       3971.3300      0.45460340
       3972.8000      0.44090280
       3974.2700      0.38192880
       3975.7400      0.47846250
       3977.2100      0.53804030
       3978.6800      0.42152050
       3980.1500      0.36190860
       3981.6200      0.46336000
       3983.0900      0.37354190
       3984.5600      0.40256490
       3986.0300      0.60532130
       3987.5000      0.63365170
       3988.9700      0.49932950
       3990.4400      0.40889950
       3991.9100      0.40755240
       3993.3800      0.46092930
       3994.8500      0.64506080
       3996.3200      0.39461890
       3997.7900      0.31894800
       3999.2600      0.41773890
       4000.7300      0.47051970
       4002.2000      0.55474080
       4003.6700      0.35559790
       4005.1400      0.48444260
       4006.6100      0.66306260
       4008.0800      0.50457510
       4009.5500      0.47564920
       4011.0200      0.46097790
       4012.4900      0.74517420
       4013.9600      0.73249890
       4015.4300      0.49336020
       4016.9000      0.51415280
       4018.3700      0.59044260
       4019.8400      0.62047580
       4021.3100      0.44801150
       4022.7800      0.42252130
       4024.2500      0.56651470
       4025.7200      0.53209650
       4027.1900      0.46953750
       4028.6600      0.37886820
       4030.1300      0.55070620
       4031.6000      0.41524470
       4033.0700      0.41316580
       4034.5400      0.63045640
       4036.0100      0.42659610
       4037.4800      0.42717480
       4038.9500      0.39650880
       4040.4200      0.45745030
       4041.8900      0.36876600
       4043.3600      0.38543270
       4044.8300      0.31533490
       4046.3000      0.45049130
       4047.7700      0.65205430
       4049.2400      0.75674150
       4050.7100      0.48180540
       4052.1800      0.44829790
       4053.6500      0.52277060
       4055.1200      0.47805910
       4056.5900      0.41757080
       4058.0601      0.54000810
       4059.5300      0.49461300
       4061.0000      0.36617320
       4062.4700      0.42187840
       4063.9400      0.43484770
       4065.4100      0.35741350
       4066.8800      0.38562540
       4068.3500      0.45670490
       4069.8200      0.48109060
       4071.2900      0.53532370
       4072.7600      0.52109060
       4074.2300      0.45831510
       4075.7000      0.44384780
       4077.1700      0.37938140
       4078.6400      0.34949490
       4080.1100      0.38133340
       4081.5800      0.45234560
       4083.0500      0.49626700
       4084.5200      0.48405860
       4085.9900      0.41854120
       4087.4600      0.33192110
       4088.9300      0.39113430
       4090.4000      0.34548800
       4091.8700      0.38481110
       4093.3400      0.41554990
       4094.8100      0.38260730
       4096.2800      0.45811920
       4097.7500      0.49623510
       4099.2200      0.51535310
       4100.6900      0.47688370
       4102.1600      0.41858330
       4103.6300      0.27327190
       4105.1000      0.32934810
       4106.5700      0.42711840
       4108.0400      0.35685200
       4109.5100      0.35527290
       4110.9800      0.29167840
       4112.4500      0.37228760
       4113.9200      0.36534750
       4115.3900      0.29550100
       4116.8600      0.32860880
       4118.3300      0.29904450
       4119.8000      0.36228840
       4121.2700      0.42492710
       4122.7400      0.35059920
       4124.2100      0.37093790
       4125.6800      0.35868520
       4127.1500      0.32310610
       4128.6200      0.35912090
       4130.0900      0.39500130
       4131.5600      0.40656240
       4133.0300      0.27161700
       4134.5000      0.26825560
       4135.9700      0.34837690
       4137.4400      0.36488170
       4138.9100      0.24115920
       4140.3800      0.26187470
       4141.8500      0.37964860
       4143.3200      0.36107510
       4144.7900      0.27870820
       4146.2600      0.24498760
       4147.7300      0.27303540
       4149.2000      0.38672210
       4150.6700      0.42068560
       4152.1400      0.33053640
       4153.6100      0.25614780
       4155.0800      0.18495490
       4156.5500      0.30629170
       4158.0200      0.30891320
       4159.4900      0.29913940
       4160.9600      0.29785880
       4162.4300      0.23149180
       4163.9000      0.24060420
       4165.3700      0.26712280
       4166.8400      0.30889600
       4168.3100      0.27958430
       4169.7800      0.24761750
       4171.2500      0.24966730
       4172.7200      0.34949420
       4174.1900      0.29634260
       4175.6600      0.27862390
       4177.1300      0.21341610
       4178.6000      0.23868000
       4180.0700      0.28313780
       4181.5400      0.29395350
       4183.0100      0.31365790
       4184.4800      0.25825900
       4185.9500      0.23906730
       4187.4200      0.26375760
       4188.8900      0.29333530
       4190.3600      0.21827730
       4191.8300      0.20134510
       4193.3000      0.20363970
       4194.7700      0.24800360
       4196.2400      0.29958040
       4197.7100      0.28788780
       4199.1800      0.27364800
       4200.6500      0.26966420
       4202.1200      0.25485230
       4203.5900      0.20915240
       4205.0600      0.21396430
       4206.5300      0.25369740
       4208.0000      0.24480300
       4209.4700      0.20059140
       4210.9400      0.25840530
       4212.4100      0.25145110
       4213.8800      0.26695730
       4215.3500      0.26820850
       4216.8200      0.23311740
       4218.2900      0.26786750
       4219.7600      0.29365810
       4221.2300      0.26299390
       4222.7000      0.29940150
       4224.1700      0.30802660
       4225.6400      0.30517840
       4227.1100      0.30984800
       4228.5800      0.27604820
       4230.0500      0.29403170
       4231.5200      0.31251840
       4232.9900      0.25358070
       4234.4600      0.25825420
       4235.9300      0.29808940
       4237.4000      0.27293460
       4238.8700      0.28111690
       4240.3400      0.33595490
       4241.8100      0.32175670
       4243.2800      0.25723120
       4244.7500      0.29481460
       4246.2200      0.31455640
       4247.6900      0.29334070
       4249.1600      0.31458110
       4250.6300      0.28069060
       4252.1000      0.29947680
       4253.5700      0.29521410
       4255.0400      0.29422440
       4256.5100      0.32927650
       4257.9800      0.30919780
       4259.4500      0.26136680
       4260.9200      0.26128640
       4262.3900      0.28041720
       4263.8600      0.25440870
       4265.3300      0.31786840
       4266.8000      0.32951270
       4268.2700      0.31134700
       4269.7400      0.33186170
       4271.2100      0.29104920
       4272.6800      0.28764780
       4274.1500      0.28594780
       4275.6200      0.28821300
       4277.0900      0.27888230
       4278.5600      0.30424010
       4280.0300      0.27903260
       4281.5000      0.31199210
       4282.9700      0.38746480
       4284.4400      0.33687930
       4285.9100      0.26281590
       4287.3800      0.30621470
       4288.8500      0.30205660
       4290.3200      0.25895940
       4291.7900      0.26079580
       4293.2600      0.25048450
       4294.7300      0.31206090
       4296.2000      0.32144810
       4297.6700      0.30492590
       4299.1400      0.33242290
       4300.6100      0.31735160
       4302.0800      0.27094100
       4303.5500      0.26191120
       4305.0200      0.30102900
       4306.4900      0.28282010
       4307.9600      0.26892560
       4309.4300      0.30972900
       4310.9000      0.28440470
       4312.3700      0.25074940
       4313.8400      0.34958070
       4315.3100      0.27871180
       4316.7800      0.34394350
       4318.2500      0.37312700
       4319.7200      0.32065710
       4321.1900      0.26787890
       4322.6600      0.24778500
       4324.1300      0.28072420
       4325.6000      0.25576780
       4327.0700      0.30041040
       4328.5400      0.32320990
       4330.0100      0.25274720
       4331.4800      0.25604450
       4332.9500      0.27565330
       4334.4200      0.33833580
       4335.8900      0.32977250
       4337.3600      0.29884500
       4338.8300      0.25702150
       4340.3000      0.33485650
       4341.7700      0.29155040
       4343.2400      0.30003300
       4344.7100      0.32865470
       4346.1800      0.27044540
       4347.6500      0.33151600
       4349.1200      0.29595880
       4350.5900      0.24789280
       4352.0600      0.29210310
       4353.5300      0.28416690
       4355.0000      0.27115210
       4356.4700      0.30303800
       4357.9400      0.32640090
