Units are: observed wavelength (Ang), observed flux (10^-15 erg/s/cm^2/Ang)
       3472.0000      0.29298140
       3473.4700       1.2351830
       3474.9400      0.56480880
       3476.4100     -0.10531880
       3477.8800    -0.013153920
       3479.3500     0.079816370
       3480.8200     0.029889650
       3482.2900    -0.030860410
       3483.7600    0.0010219210
       3485.2300      0.17551290
       3486.7000     0.027747190
       3488.1700    -0.051002090
       3489.6400    0.0067498550
       3491.1100     -0.17668010
       3492.5800    -0.074065860
       3494.0500      0.15370050
       3495.5200      0.30052030
       3496.9900      0.13974400
       3498.4600    -0.073555690
       3499.9300    -0.048118350
       3501.4000     0.069813100
       3502.8700     0.041025040
       3504.3400   -0.0083089480
       3505.8100   -0.0095872950
       3507.2800   -0.0049263220
       3508.7500      0.37404570
       3510.2200       1.0389660
       3511.6900      0.78911610
       3513.1600     0.068265520
       3514.6300     -0.12735310
       3516.1000    -0.023460730
       3517.5700     0.086286290
       3519.0400     0.020009870
       3520.5100     0.023740570
       3521.9800    -0.047518800
       3523.4500      0.73564910
       3524.9200      0.86072930
       3526.3900      0.10311960
       3527.8600    -0.087187450
       3529.3300    -0.051399270
       3530.8000      0.73508450
       3532.2700       1.1593670
       3533.7400      0.40552270
       3535.2100     -0.11380420
       3536.6800   -0.0016848620
       3538.1500     0.033673970
       3539.6200    -0.042959740
       3541.0900  -8.1814150e-05
       3542.5600     0.047909210
       3544.0300    -0.013383440
       3545.5000      0.27197050
       3546.9700      0.25433050
       3548.4400     -0.28221420
       3549.9100     -0.41207860
       3551.3800       15.814540
       3552.8500       44.215460
       3554.3200       23.070780
       3555.7900     -0.80258210
       3557.2600     -0.38559840
       3558.7300      0.11442730
       3560.2000      0.16338130
       3561.6700      0.11008570
       3563.1400    -0.056491710
       3564.6100    -0.026070460
       3566.0800     0.094328590
       3567.5500     0.096302060
       3569.0200     0.046512630
       3570.4900    0.0098587100
       3571.9600    -0.022773460
       3573.4300      0.20787200
       3574.9000      0.74876110
       3576.3700      0.43715280
       3577.8400    -0.036636270
       3579.3100    -0.031881080
       3580.7800     0.037978260
       3582.2500    -0.086477980
       3583.7200      0.25416750
       3585.1900      0.50374920
       3586.6600      0.10044220
       3588.1300    -0.036445940
       3589.6000   -0.0089281700
       3591.0700    -0.044808030
       3592.5400     0.041458310
       3594.0100     0.056155170
       3595.4800    -0.032561340
       3596.9500      0.12471620
       3598.4200      0.23519070
       3599.8900      0.16184200
       3601.3600      0.12463860
       3602.8300     0.090682540
       3604.3000     0.011433090
       3605.7700     0.052193280
       3607.2400    -0.057333050
       3608.7100      0.17144280
       3610.1800      0.59626330
       3611.6500      0.28340770
       3613.1200     0.067300750
       3614.5900      0.11573380
       3616.0600      0.12333780
       3617.5300    -0.044395250
       3619.0000     -0.18293010
       3620.4700     -0.13664260
       3621.9400     0.030016180
       3623.4100      0.52531180
       3624.8800      0.36819400
       3626.3500     0.015818850
       3627.8200      0.54390540
       3629.2900      0.57406010
       3630.7600      0.13707680
       3632.2300     0.093548180
       3633.7000      0.13737900
       3635.1700     0.073528090
       3636.6400    -0.048597880
       3638.1100    -0.073336200
       3639.5800    -0.019544710
       3641.0500      0.24971480
       3642.5200      0.44135880
       3643.9900      0.57489230
       3645.4600      0.89790020
       3646.9300       1.0593560
       3648.4000      0.41784920
       3649.8700     -0.16177540
       3651.3400     -0.17561490
       3652.8100    0.0036743970
       3654.2800      0.29100030
       3655.7500      0.19413900
       3657.2200     0.066166520
       3658.6900      0.14595020
       3660.1600     0.020357000
       3661.6300     0.012271810
       3663.1000      0.12730110
       3664.5700     0.059750600
       3666.0400      0.18983560
       3667.5100      0.20098980
       3668.9800      0.10314710
       3670.4500      0.14783960
       3671.9200     0.040262140
       3673.3900     0.048792210
       3674.8600      0.24811150
       3676.3300      0.19515770
       3677.8000     0.081870450
       3679.2700      0.27301170
       3680.7400      0.31925960
       3682.2100     0.090046410
       3683.6800     0.067415720
       3685.1500      0.28739520
       3686.6200      0.46066880
       3688.0900      0.29420330
       3689.5600   -0.0045678330
       3691.0300   -0.0071255910
       3692.5000      0.12039080
       3693.9700      0.16793130
       3695.4400     0.052401590
       3696.9100      0.25060440
       3698.3800      0.45462660
       3699.8500      0.18083470
       3701.3200    -0.071702440
       3702.7900     -0.17760330
       3704.2600   0.00037161060
       3705.7300    -0.025220710
       3707.2000     -0.20510370
       3708.6700    -0.024184680
       3710.1400      0.13414400
       3711.6101      0.16775860
       3713.0800      0.10796490
       3714.5500     -0.10084680
       3716.0200     0.060882180
       3717.4900      0.60717540
       3718.9600      0.54171430
       3720.4300      0.16550490
       3721.9000     0.077110360
       3723.3700     0.064513000
       3724.8400      0.11851530
       3726.3100      0.34172370
       3727.7800      0.35929570
       3729.2500      0.25561770
       3730.7200      0.18247770
       3732.1900      0.17032600
       3733.6600      0.32629350
       3735.1300      0.20750850
       3736.6000      0.10747740
       3738.0700     0.033193100
       3739.5400    -0.029560840
       3741.0100      0.46276300
       3742.4800      0.55328330
       3743.9500      0.53281740
       3745.4200      0.39312240
       3746.8900     0.018983430
       3748.3600     0.072272370
       3749.8300      0.15301560
       3751.3000      0.21470040
       3752.7700      0.19053190
       3754.2400      0.14221420
       3755.7100      0.13381510
       3757.1800      0.19875510
       3758.6500      0.22846670
       3760.1200      0.15253420
       3761.5900     0.096427720
       3763.0600      0.10000450
       3764.5300     0.097505190
       3766.0000      0.14114460
       3767.4700      0.32780300
       3768.9400      0.40350460
       3770.4100      0.26918820
       3771.8800      0.15511970
       3773.3500     0.058607080
       3774.8200     0.061665450
       3776.2900      0.15345040
       3777.7600      0.23203650
       3779.2300      0.26561760
       3780.7000      0.23840290
       3782.1700      0.37542770
       3783.6400      0.37085740
       3785.1100     0.048899290
       3786.5800     0.034845660
       3788.0500      0.22912750
       3789.5200      0.20325930
       3790.9900      0.22535220
       3792.4600      0.19552340
       3793.9300     0.070179420
       3795.4000      0.11478530
       3796.8700      0.37486670
       3798.3400      0.47163890
       3799.8100      0.23154480
       3801.2800      0.15957300
       3802.7500      0.42640680
       3804.2200      0.43116840
       3805.6900      0.19889380
       3807.1600      0.19805150
       3808.6300      0.16438010
       3810.1000     0.057276560
       3811.5700     0.039601850
       3813.0400      0.10279970
       3814.5100      0.17304070
       3815.9800      0.21655910
       3817.4500     0.081043410
       3818.9200     0.073959040
       3820.3900      0.14649470
       3821.8600     0.090060260
       3823.3300     0.069506490
       3824.8000      0.12178010
       3826.2700      0.23617230
       3827.7400      0.25304740
       3829.2100      0.14121850
       3830.6800      0.18221310
       3832.1500      0.32714950
       3833.6200      0.25345720
       3835.0900      0.14700940
       3836.5600      0.11673130
       3838.0300      0.21099180
       3839.5000      0.18083240
       3840.9700      0.17436000
       3842.4400      0.16714780
       3843.9100     0.058715050
       3845.3800      0.12307070
       3846.8500      0.13379890
       3848.3200     0.085904260
       3849.7900     0.056984430
       3851.2600      0.14732870
       3852.7300      0.19946600
       3854.2000      0.23337080
       3855.6700     0.099486350
       3857.1400     0.089389620
       3858.6100      0.24277810
       3860.0800      0.18381900
       3861.5500      0.10316870
       3863.0200      0.21083930
       3864.4900      0.27536210
       3865.9600      0.14220690
       3867.4300      0.16337790
       3868.9000      0.28884220
       3870.3700      0.33942640
       3871.8400      0.31826710
       3873.3100      0.23271850
       3874.7800      0.23864750
       3876.2500      0.25054480
       3877.7200      0.24214200
       3879.1900      0.19892140
       3880.6600      0.21845090
       3882.1300      0.29940880
       3883.6000      0.30376860
       3885.0700      0.32650340
       3886.5400      0.25388530
       3888.0100      0.19688740
       3889.4800      0.17655230
       3890.9500      0.24638120
       3892.4200      0.49658940
       3893.8900      0.29902740
       3895.3600      0.24451920
       3896.8300      0.45478000
       3898.3000      0.28964700
       3899.7700      0.18973040
       3901.2400      0.24768850
       3902.7100      0.29502440
       3904.1800      0.36133860
       3905.6500      0.40610740
       3907.1200      0.31536320
       3908.5900      0.18270830
       3910.0600      0.21229830
       3911.5300      0.28392400
       3913.0000      0.22403410
       3914.4700      0.28536250
       3915.9400      0.41954020
       3917.4100      0.38160480
       3918.8800      0.28747690
       3920.3500      0.31289680
       3921.8200      0.41947270
       3923.2900      0.43788810
       3924.7600      0.43522910
       3926.2300      0.35361220
       3927.7000      0.32959150
       3929.1700      0.39757720
       3930.6400      0.37040350
       3932.1100      0.37644150
       3933.5800      0.43742210
       3935.0500      0.51571950
       3936.5200      0.40382670
       3937.9900      0.31404810
       3939.4600      0.34972070
       3940.9300      0.39258720
       3942.4000      0.46620050
       3943.8700      0.44235810
       3945.3400      0.39142220
       3946.8100      0.47216030
       3948.2800      0.44625880
       3949.7500      0.41641110
       3951.2200      0.46466090
       3952.6900      0.40770660
       3954.1600      0.36473160
       3955.6300      0.26813590
       3957.1000      0.36024510
       3958.5700      0.44158910
       3960.0400      0.39191470
       3961.5100      0.46783870
       3962.9800      0.40378920
       3964.4500      0.25030060
       3965.9200      0.29152410
       3967.3900      0.38542720
       3968.8600      0.39895400
       3970.3300      0.43099780
       3971.8000      0.42571680
       3973.2700      0.41008950
       3974.7400      0.47339480
       3976.2100      0.50865620
       3977.6800      0.39965740
       3979.1500      0.36455320
       3980.6200      0.43165340
       3982.0900      0.40932440
       3983.5600      0.38730370
       3985.0300      0.44539330
       3986.5000      0.48996840
       3987.9700      0.45080770
       3989.4400      0.36234230
       3990.9100      0.21724640
       3992.3800      0.28724530
       3993.8500      0.51137230
       3995.3200      0.52082930
       3996.7900      0.28397700
       3998.2600      0.28607160
       3999.7300      0.35486490
       4001.2000      0.59055850
       4002.6700      0.65365870
       4004.1400      0.44327240
       4005.6100      0.44347510
       4007.0800      0.53745450
       4008.5500      0.42055330
       4010.0200      0.37482050
       4011.4900      0.48765070
       4012.9600      0.54326460
       4014.4300      0.40054030
       4015.9000      0.43987160
       4017.3700      0.55976080
       4018.8400      0.52608590
       4020.3100      0.45273860
       4021.7800      0.42130270
       4023.2500      0.44810920
       4024.7201      0.41572060
       4026.1900      0.38607530
       4027.6600      0.45595650
       4029.1300      0.47126250
       4030.6000      0.43894650
       4032.0700      0.48769230
       4033.5400      0.48981450
       4035.0100      0.41523460
       4036.4800      0.42169610
       4037.9500      0.37804600
       4039.4200      0.31901650
       4040.8900      0.40243130
       4042.3600      0.47462790
       4043.8300      0.42380970
       4045.3000      0.37946280
       4046.7700      0.39350710
       4048.2400      0.54685910
       4049.7100      0.47809530
       4051.1800      0.31319280
       4052.6500      0.37702650
       4054.1200      0.46196000
       4055.5900      0.40171860
       4057.0600      0.37431510
       4058.5300      0.45798510
       4060.0000      0.40703240
       4061.4700      0.33984930
       4062.9400      0.36997500
       4064.4100      0.41642070
       4065.8800      0.32287760
       4067.3500      0.24780180
       4068.8200      0.33071350
       4070.2900      0.44625680
       4071.7600      0.37513000
       4073.2300      0.24498660
       4074.7000      0.30562080
       4076.1700      0.34367460
       4077.6400      0.22284640
       4079.1100      0.32654610
       4080.5800      0.43358300
       4082.0500      0.38517230
       4083.5200      0.37257550
       4084.9900      0.33774090
       4086.4600      0.26446220
       4087.9300      0.31638890
       4089.4000      0.35727130
       4090.8700      0.29489690
       4092.3400      0.33796060
       4093.8100      0.30482350
       4095.2800      0.32795170
       4096.7500      0.36666250
       4098.2200      0.34094660
       4099.6900      0.31828700
       4101.1600      0.31047790
       4102.6300      0.32579260
       4104.1000      0.26213140
       4105.5700      0.28788840
       4107.0400      0.29749660
       4108.5100      0.30062130
       4109.9800      0.28829260
       4111.4500      0.31593800
       4112.9200      0.34115770
       4114.3900      0.25848170
       4115.8600      0.27129720
       4117.3300      0.31235600
       4118.8000      0.22371820
       4120.2700      0.21156830
       4121.7400      0.24829610
       4123.2100      0.25138690
       4124.6800      0.29007190
       4126.1500      0.26725150
       4127.6200      0.32925950
       4129.0900      0.35570100
       4130.5600      0.28632210
       4132.0300      0.27178500
       4133.5000      0.27895420
       4134.9700      0.24167410
       4136.4400      0.24354340
       4137.9100      0.28775930
       4139.3800      0.28387680
       4140.8500      0.24578370
       4142.3200      0.28221580
       4143.7900      0.31275090
       4145.2600      0.25530220
       4146.7300      0.24630450
       4148.2000      0.28970160
       4149.6700      0.31877570
       4151.1400      0.27570020
       4152.6100      0.26375590
       4154.0800      0.20371530
       4155.5500      0.18394880
       4157.0200      0.18299820
       4158.4900      0.20199100
       4159.9600      0.24971890
       4161.4300      0.22706350
       4162.9000      0.20938860
       4164.3700      0.21223160
       4165.8400      0.18527760
       4167.3100      0.18547670
       4168.7800      0.24771840
       4170.2500      0.22815360
       4171.7200      0.20106080
       4173.1900      0.24712790
       4174.6600      0.23663310
       4176.1300      0.19415250
       4177.6000      0.19318350
       4179.0700      0.15877650
       4180.5400      0.18322520
       4182.0100      0.25608570
       4183.4800      0.27944340
       4184.9500      0.19892680
       4186.4200      0.18224820
       4187.8900      0.27599220
       4189.3600      0.24094030
       4190.8300      0.18411400
       4192.3000      0.20474380
       4193.7700      0.21263420
       4195.2400      0.21404610
       4196.7100      0.22222530
       4198.1800      0.23023320
       4199.6500      0.14078190
       4201.1200      0.13056820
       4202.5900      0.22092640
       4204.0600      0.20090080
       4205.5300      0.20852030
       4207.0000      0.21767030
       4208.4700      0.19655130
       4209.9400      0.17482120
       4211.4100      0.18533870
       4212.8800      0.22994920
       4214.3500      0.21470520
       4215.8200      0.19824010
       4217.2900      0.22222730
       4218.7600      0.20634860
       4220.2300      0.19644240
       4221.7000      0.22697160
       4223.1700      0.21110500
       4224.6400      0.20900190
       4226.1100      0.24555570
       4227.5800      0.24926170
       4229.0500      0.19868520
       4230.5200      0.21128460
       4231.9900      0.22746680
       4233.4600      0.22897390
       4234.9300      0.23593990
       4236.4000      0.22016870
       4237.8700      0.23851070
       4239.3400      0.21832200
       4240.8100      0.22416940
       4242.2800      0.24376690
       4243.7500      0.24760820
       4245.2200      0.28291310
       4246.6900      0.22818100
       4248.1600      0.21838470
       4249.6300      0.24300880
       4251.1000      0.17357020
       4252.5700      0.18897410
       4254.0400      0.24617850
       4255.5100      0.22246470
       4256.9800      0.20339840
       4258.4500      0.20199510
       4259.9200      0.21546110
       4261.3900      0.24244320
       4262.8600      0.22678570
       4264.3300      0.22531690
       4265.8000      0.25428520
       4267.2700      0.26463980
       4268.7400      0.23786170
       4270.2100      0.23070210
       4271.6800      0.19195560
       4273.1500      0.20842560
       4274.6200      0.21952640
       4276.0900      0.19344710
       4277.5600      0.22674350
       4279.0300      0.24730090
       4280.5000      0.25203610
       4281.9700      0.28107170
       4283.4400      0.23232880
       4284.9100      0.20139620
       4286.3800      0.25277410
       4287.8500      0.24541910
       4289.3200      0.29877690
       4290.7900      0.30751730
       4292.2600      0.24003300
       4293.7300      0.26088670
       4295.2000      0.24647800
       4296.6700      0.26039420
       4298.1400      0.24082940
       4299.6100      0.21351380
       4301.0800      0.23789300
       4302.5500      0.21645820
       4304.0200      0.23927230
       4305.4900      0.27880560
       4306.9600      0.25320780
       4308.4300      0.24136010
       4309.9000      0.28757530
       4311.3700      0.25767190
       4312.8400      0.23612440
       4314.3100      0.21605550
       4315.7800      0.22710390
       4317.2500      0.19744110
       4318.7200      0.21439530
       4320.1900      0.21820640
       4321.6600      0.24486370
       4323.1300      0.24299860
       4324.6000      0.21331370
       4326.0700      0.20591680
       4327.5400      0.25202800
       4329.0100      0.25480430
       4330.4800      0.28066010
       4331.9500      0.22964370
       4333.4200      0.22521010
       4334.8900      0.25152870
       4336.3600      0.25591710
       4337.8301      0.26064240
       4339.3000      0.23720020
       4340.7700      0.24785840
       4342.2400      0.23630400
       4343.7100      0.19058530
       4345.1800      0.23187050
       4346.6500      0.24532620
       4348.1200      0.26254210
       4349.5900      0.25758650
       4351.0600      0.23338320
       4352.5300      0.24899290
       4354.0000      0.27015160
       4355.4700      0.30206100
       4356.9400      0.23742390
