Units are: observed wavelength (Ang), observed flux (10^-15 erg/s/cm^2/Ang)
       3475.0000    -0.015591940
       3476.4700     0.028354640
       3477.9400       1.5131500
       3479.4100       2.8780010
       3480.8800      0.18503190
       3482.3500      0.22896290
       3483.8200     0.073607680
       3485.2900     -0.11178040
       3486.7600      0.34797730
       3488.2300      0.24948160
       3489.7000     0.013614520
       3491.1700      0.16591890
       3492.6400      0.18251500
       3494.1100      0.29850890
       3495.5800       1.6880030
       3497.0500       1.8339750
       3498.5201     -0.21021090
       3499.9900      0.25603780
       3501.4600     0.013744490
       3502.9300     -0.35082540
       3504.4000     -0.38296250
       3505.8700      0.10260830
       3507.3400      0.37999380
       3508.8100      0.14696580
       3510.2800    -0.097056720
       3511.7500   0.00014236510
       3513.2200     -0.12333930
       3514.6900     0.019979710
       3516.1600      0.27495460
       3517.6300     0.096712950
       3519.1000     -0.11582010
       3520.5700     -0.16581020
       3522.0400       1.5307550
       3523.5100       2.9726340
       3524.9800       1.9824220
       3526.4500      0.53494100
       3527.9200      0.29950980
       3529.3900      0.31077020
       3530.8600      0.50823830
       3532.3300      0.18710950
       3533.8000    -0.034216270
       3535.2700      0.12278840
       3536.7400      0.19699950
       3538.2100      0.41966830
       3539.6800      0.30359730
       3541.1500     0.059628180
       3542.6200     -0.19577360
       3544.0900     0.055476670
       3545.5600      0.17649580
       3547.0300    -0.093381670
       3548.5000      0.12198570
       3549.9700      0.29784250
       3551.4400     0.038978540
       3552.9100      0.24398680
       3554.3800      0.61279750
       3555.8500      0.29788450
       3557.3200     0.058559060
       3558.7900      0.24818680
       3560.2600      0.58687380
       3561.7300      0.17197890
       3563.2000      0.57115270
       3564.6700      0.88364550
       3566.1400     0.072621000
       3567.6100      0.10228480
       3569.0800      0.21803290
       3570.5500      0.23469910
       3572.0200      0.21243180
       3573.4900      0.36230270
       3574.9600      0.41738100
       3576.4300      0.33670980
       3577.9000      0.26328990
       3579.3700      0.21640120
       3580.8400      0.15170590
       3582.3100      0.40869970
       3583.7800      0.29614710
       3585.2500     0.098508130
       3586.7200      0.40792350
       3588.1900      0.43787300
       3589.6600      0.33320360
       3591.1300      0.37206120
       3592.6000      0.65036640
       3594.0700      0.37898370
       3595.5400     0.095083260
       3597.0100      0.30985720
       3598.4800      0.39599890
       3599.9500      0.31165080
       3601.4200      0.31453820
       3602.8900      0.52975340
       3604.3600      0.35762970
       3605.8300      0.57289940
       3607.3000      0.42678250
       3608.7700      0.18700900
       3610.2400      0.28974990
       3611.7100      0.23493090
       3613.1800      0.30826080
       3614.6500      0.26394230
       3616.1200      0.18823520
       3617.5900       1.0284040
       3619.0600      0.41047370
       3620.5300     0.019559020
       3622.0000      0.26915670
       3623.4700      0.19547470
       3624.9400      0.26358320
       3626.4100      0.19440240
       3627.8800      0.22748730
       3629.3500      0.22925700
       3630.8200      0.30255280
       3632.2900      0.34636010
       3633.7600       1.3852500
       3635.2300      0.99092080
       3636.7000      0.31175800
       3638.1700     0.078533970
       3639.6400    -0.013369510
       3641.1100     0.074419630
       3642.5800      0.29116600
       3644.0500     0.048303240
       3645.5200      0.15261440
       3646.9900      0.62039140
       3648.4600      0.23920400
       3649.9300    -0.087129800
       3651.4000      0.22917460
       3652.8700      0.13562280
       3654.3400      0.22324370
       3655.8100      0.26569360
       3657.2800     0.020135580
       3658.7500      0.12395740
       3660.2200      0.10757260
       3661.6900      0.18022720
       3663.1600      0.27168770
       3664.6300      0.53907110
       3666.1000      0.34367150
       3667.5700      0.39816610
       3669.0400      0.47154300
       3670.5100      0.24333400
       3671.9800      0.11233000
       3673.4500      0.57498640
       3674.9200      0.76402480
       3676.3900      0.29565240
       3677.8600      0.43312230
       3679.3300      0.48728070
       3680.8000      0.24892880
       3682.2700      0.35741710
       3683.7400      0.59209150
       3685.2100      0.45050630
       3686.6800      0.21214060
       3688.1500      0.40214940
       3689.6200      0.67612830
       3691.0900      0.94891730
       3692.5600      0.86875590
       3694.0300      0.44146170
       3695.5000      0.20784680
       3696.9700      0.19226730
       3698.4400      0.57227390
       3699.9100      0.58740540
       3701.3800      0.53690660
       3702.8500      0.37327630
       3704.3200      0.67446160
       3705.7900      0.86542450
       3707.2600      0.75342040
       3708.7300      0.51922070
       3710.2000      0.31295840
       3711.6700      0.40855210
       3713.1400      0.42433950
       3714.6100      0.18700970
       3716.0800      0.24659960
       3717.5500      0.26033400
       3719.0200      0.30480190
       3720.4900      0.30350440
       3721.9600      0.37446680
       3723.4300      0.19863780
       3724.9000      0.20720530
       3726.3700      0.27443130
       3727.8400      0.32059760
       3729.3100      0.71101800
       3730.7800      0.36935560
       3732.2500      0.42824410
       3733.7200      0.42320500
       3735.1900      0.74872990
       3736.6600      0.38202370
       3738.1300      0.28599440
       3739.6000     0.056942460
       3741.0700      0.41350980
       3742.5400      0.60777920
       3744.0100      0.87352610
       3745.4800      0.55899750
       3746.9500      0.35935710
       3748.4200      0.25571050
       3749.8900      0.46122350
       3751.3600      0.22745420
       3752.8300      0.40515490
       3754.3000      0.35669740
       3755.7700      0.35489510
       3757.2400      0.47638960
       3758.7100      0.44275110
       3760.1800      0.18752400
       3761.6500      0.34319590
       3763.1200      0.59040260
       3764.5900      0.18025680
       3766.0600     0.057309080
       3767.5300      0.19422370
       3769.0000      0.52541560
       3770.4700      0.52826730
       3771.9400      0.25306660
       3773.4100      0.44165130
       3774.8800      0.44189160
       3776.3500      0.12189580
       3777.8200      0.31448210
       3779.2900      0.36558680
       3780.7600      0.29165600
       3782.2300      0.27139110
       3783.7000      0.22160790
       3785.1700      0.16997990
       3786.6400      0.20030420
       3788.1100      0.19237100
       3789.5800      0.24546550
       3791.0500      0.32859240
       3792.5200      0.24911890
       3793.9900      0.19011550
       3795.4600      0.18231270
       3796.9300      0.42705150
       3798.4000      0.32980700
       3799.8700      0.17034940
       3801.3400      0.21405630
       3802.8100      0.24982850
       3804.2800      0.53520450
       3805.7500      0.38216180
       3807.2200      0.14593500
       3808.6900      0.17633620
       3810.1600      0.24389270
       3811.6301      0.23095140
       3813.1000      0.12705870
       3814.5700     0.058696110
       3816.0400     0.093513800
       3817.5100      0.18906080
       3818.9800      0.12476410
       3820.4500      0.17105570
       3821.9200      0.23473550
       3823.3900      0.12844640
       3824.8600      0.15276150
       3826.3300      0.32509830
       3827.8000      0.17380440
       3829.2700      0.31240150
       3830.7400      0.13884600
       3832.2100      0.18831880
       3833.6800      0.18993690
       3835.1500      0.29582140
       3836.6200      0.31263280
       3838.0900      0.10481000
       3839.5600      0.25674750
       3841.0300      0.27733930
       3842.5000      0.18526580
       3843.9700      0.17960580
       3845.4400      0.19599230
       3846.9100      0.20567720
       3848.3800      0.15059710
       3849.8500      0.24660820
       3851.3200      0.36705840
       3852.7900      0.40164010
       3854.2600      0.26959420
       3855.7300      0.28074490
       3857.2000      0.14228840
       3858.6700      0.22507180
       3860.1400      0.26915510
       3861.6100      0.33541360
       3863.0800      0.30456540
       3864.5500      0.12999080
       3866.0200      0.26960850
       3867.4900      0.43265040
       3868.9600      0.26658440
       3870.4300      0.40244000
       3871.9000      0.43005410
       3873.3700      0.11662440
       3874.8400      0.37210780
       3876.3100      0.36270320
       3877.7800      0.29869650
       3879.2500      0.39035910
       3880.7200      0.32019830
       3882.1900      0.51112440
       3883.6600      0.48820270
       3885.1300      0.53258970
       3886.6000      0.54770310
       3888.0700      0.34682320
       3889.5400      0.36199810
       3891.0100      0.51195160
       3892.4800      0.89078620
       3893.9500      0.59128560
       3895.4200      0.49960740
       3896.8900      0.81312040
       3898.3600      0.54299940
       3899.8300      0.37989610
       3901.3000      0.43755380
       3902.7700      0.42601190
       3904.2400      0.30785770
       3905.7100      0.83218380
       3907.1800      0.74528850
       3908.6500      0.34470670
       3910.1200      0.65157910
       3911.5900      0.86677960
       3913.0600      0.65049990
       3914.5300      0.48658100
       3916.0000      0.52083540
       3917.4700      0.97965090
       3918.9400      0.84987120
       3920.4100      0.51007490
       3921.8800      0.86211720
       3923.3500      0.97124040
       3924.8200      0.69212810
       3926.2900      0.56988560
       3927.7600      0.48319820
       3929.2300      0.71247830
       3930.7000      0.66229300
       3932.1700      0.52783950
       3933.6400      0.62624020
       3935.1100      0.56793270
       3936.5800      0.51732130
       3938.0500      0.58809080
       3939.5200      0.54483340
       3940.9900      0.49406560
       3942.4600      0.50418080
       3943.9300      0.66766360
       3945.4000      0.64733030
       3946.8700      0.55842660
       3948.3400      0.52750350
       3949.8100      0.72781710
       3951.2800      0.84077050
       3952.7500      0.73632600
       3954.2200      0.70198580
       3955.6900      0.60754780
       3957.1600      0.59912160
       3958.6300      0.59519350
       3960.1000       1.0373190
       3961.5700       1.0448100
       3963.0400      0.90910330
       3964.5100      0.78009660
       3965.9800      0.89367030
       3967.4500      0.81539680
       3968.9200      0.66139760
       3970.3900      0.88490670
       3971.8600       1.2048820
       3973.3300      0.83023110
       3974.8000      0.88177890
       3976.2700      0.66314520
       3977.7400      0.70427110
       3979.2100      0.88359150
       3980.6800      0.92399660
       3982.1500      0.76548470
       3983.6200      0.67731630
       3985.0900      0.67722860
       3986.5600      0.82323480
       3988.0300      0.75404840
       3989.5000      0.79267410
       3990.9700      0.57702810
       3992.4400      0.85272750
       3993.9100       1.0231530
       3995.3800      0.66661760
       3996.8500      0.81308060
       3998.3200      0.74216090
       3999.7900      0.99313690
       4001.2600      0.71641560
       4002.7300      0.61198120
       4004.2000      0.85430790
       4005.6700      0.86383570
       4007.1400      0.56734950
       4008.6100      0.73834360
       4010.0800      0.83271760
       4011.5500      0.61985160
       4013.0200      0.61522300
       4014.4900      0.76898320
       4015.9600      0.99159070
       4017.4300      0.88422200
       4018.9000      0.72154770
       4020.3700      0.71845870
       4021.8400      0.68389930
       4023.3100      0.76869680
       4024.7800      0.75741100
       4026.2500      0.67992240
       4027.7200      0.64662740
       4029.1900      0.85201840
       4030.6600      0.74810800
       4032.1300      0.69770740
       4033.6000      0.79003890
       4035.0700      0.74140990
       4036.5400      0.72203490
       4038.0100      0.68626220
       4039.4800      0.63653530
       4040.9500      0.56944780
       4042.4200      0.92083080
       4043.8900      0.99093040
       4045.3600      0.82627550
       4046.8300      0.77679750
       4048.3000      0.61329940
       4049.7700      0.61795000
       4051.2400      0.74047120
       4052.7100      0.65557740
       4054.1800      0.69990750
       4055.6500      0.69486330
       4057.1200      0.77749130
       4058.5900      0.72361870
       4060.0600      0.70966180
       4061.5300      0.79751010
       4063.0000      0.86350200
       4064.4700      0.67784470
       4065.9400      0.76536240
       4067.4100      0.72345450
       4068.8800      0.53537110
       4070.3500      0.73137780
       4071.8200      0.78994680
       4073.2900      0.65967130
       4074.7600      0.60522130
       4076.2300      0.69430200
       4077.7000      0.63148250
       4079.1700      0.62637260
       4080.6400      0.76348470
       4082.1100      0.68985290
       4083.5800      0.59080770
       4085.0500      0.53980990
       4086.5200      0.68045950
       4087.9900      0.72599860
       4089.4600      0.73155400
       4090.9300      0.70892970
       4092.4000      0.54219650
       4093.8700      0.66788490
       4095.3400      0.58734740
       4096.8100      0.77431190
       4098.2800      0.60644870
       4099.7500      0.68190690
       4101.2200      0.57076870
       4102.6900      0.53924290
       4104.1600      0.57932920
       4105.6300      0.80409650
       4107.1000      0.64489400
       4108.5700      0.64806730
       4110.0400      0.57962400
       4111.5100      0.63567720
       4112.9800      0.48247760
       4114.4500      0.35976400
       4115.9200      0.54842240
       4117.3900      0.58163050
       4118.8600      0.45922770
       4120.3300      0.50440140
       4121.8000      0.65758940
       4123.2700      0.53298190
       4124.7399      0.56444510
       4126.2100      0.61785730
       4127.6800      0.48643230
       4129.1500      0.55998380
       4130.6200      0.48788400
       4132.0900      0.50743780
       4133.5600      0.70615040
       4135.0300      0.57535960
       4136.5000      0.47380850
       4137.9700      0.40767140
       4139.4400      0.41875600
       4140.9100      0.41260190
       4142.3800      0.50304680
       4143.8500      0.45231800
       4145.3200      0.41195600
       4146.7900      0.62721460
       4148.2600      0.52570340
       4149.7300      0.42254560
       4151.2000      0.36145710
       4152.6700      0.35074540
       4154.1400      0.40622810
       4155.6100      0.30959170
       4157.0800      0.36618500
       4158.5500      0.40977940
       4160.0200      0.35583080
       4161.4900      0.39866140
       4162.9600      0.54550430
       4164.4300      0.48482880
       4165.9000      0.48218950
       4167.3700      0.46488650
       4168.8400      0.44654740
       4170.3100      0.41210350
       4171.7800      0.37775410
       4173.2500      0.42452680
       4174.7200      0.35902910
       4176.1900      0.34449490
       4177.6600      0.40314310
       4179.1300      0.41698690
       4180.6000      0.33350650
       4182.0700      0.35896520
       4183.5400      0.40015770
       4185.0100      0.35033120
       4186.4800      0.41127890
       4187.9500      0.37647360
       4189.4200      0.39219170
       4190.8900      0.43520320
       4192.3600      0.39713280
       4193.8300      0.40527370
       4195.3000      0.33320740
       4196.7700      0.35678420
       4198.2400      0.41991420
       4199.7100      0.39156600
       4201.1800      0.43931490
       4202.6500      0.40650330
       4204.1200      0.30671770
       4205.5900      0.39684000
       4207.0600      0.44211500
       4208.5300      0.42556510
       4210.0000      0.41736910
       4211.4700      0.46786050
       4212.9400      0.44683150
       4214.4100      0.40454730
       4215.8800      0.42588410
       4217.3500      0.44497710
       4218.8200      0.39427520
       4220.2900      0.36701940
       4221.7600      0.41821070
       4223.2300      0.44471410
       4224.7000      0.45811970
       4226.1700      0.46367380
       4227.6400      0.43431930
       4229.1100      0.44290910
       4230.5800      0.44170090
       4232.0500      0.43147570
       4233.5200      0.39827920
       4234.9900      0.43623010
       4236.4600      0.42600180
       4237.9300      0.42946320
       4239.4000      0.41543660
       4240.8700      0.40118320
       4242.3400      0.41093510
       4243.8100      0.42143100
       4245.2800      0.46498800
       4246.7500      0.47551630
       4248.2200      0.51152430
       4249.6900      0.46722270
       4251.1600      0.42803070
       4252.6300      0.47302730
       4254.1000      0.53141480
       4255.5700      0.44376160
       4257.0400      0.45786960
       4258.5100      0.47635200
       4259.9800      0.46461420
       4261.4500      0.47154720
       4262.9200      0.45445560
       4264.3900      0.41521050
       4265.8600      0.41558590
       4267.3300      0.44126610
       4268.8000      0.43843380
       4270.2700      0.46399270
       4271.7400      0.43583050
       4273.2100      0.39364870
       4274.6800      0.40217820
       4276.1500      0.40342200
       4277.6200      0.48815600
       4279.0900      0.48618120
       4280.5600      0.51133040
       4282.0300      0.49218510
       4283.5000      0.46440650
       4284.9700      0.45173630
       4286.4400      0.42722700
       4287.9100      0.46316380
       4289.3800      0.47283720
       4290.8500      0.45621640
       4292.3200      0.47843930
       4293.7900      0.49851910
       4295.2600      0.49345640
       4296.7300      0.45117900
       4298.2000      0.47109530
       4299.6700      0.49899150
       4301.1400      0.47904050
       4302.6100      0.50347140
       4304.0800      0.45324840
       4305.5500      0.49038130
       4307.0200      0.50830200
       4308.4900      0.45814800
       4309.9600      0.42176570
       4311.4300      0.46331810
       4312.9000      0.47102180
       4314.3700      0.44259470
       4315.8400      0.44696790
       4317.3100      0.42167710
       4318.7800      0.42100090
       4320.2500      0.45817700
       4321.7200      0.47503760
       4323.1900      0.43046920
       4324.6600      0.40558790
       4326.1300      0.47010900
       4327.6000      0.45590250
       4329.0700      0.46542590
       4330.5400      0.50804250
       4332.0100      0.49716450
       4333.4800      0.46867200
       4334.9500      0.48269410
       4336.4200      0.50817330
       4337.8900      0.48700940
       4339.3600      0.44618540
       4340.8300      0.46840180
       4342.3000      0.48154440
       4343.7700      0.43772360
       4345.2400      0.44272600
       4346.7100      0.47093160
       4348.1800      0.46539200
       4349.6500      0.42123730
       4351.1200      0.40733970
       4352.5900      0.44866460
       4354.0600      0.44513440
       4355.5300      0.44611690
       4357.0000      0.50503130
       4358.4700      0.53390720
       4359.9400      0.51332770
