Units are: observed wavelength (Ang), observed flux (10^-15 erg/s/cm^2/Ang)
       3700.0000       2.3871160
       3701.1999       2.3439600
       3702.3998       2.3700120
       3703.5997       2.4227820
       3704.7996       2.4803700
       3705.9995       2.4629920
       3707.1995       2.4829220
       3708.3994       2.5101120
       3709.5993       2.3604720
       3710.7992       2.4926220
       3711.9991       2.5347140
       3713.1990       2.5770760
       3714.3989       2.5346620
       3715.5989       2.4736920
       3716.7988       2.4796500
       3717.9987       2.5461080
       3719.1986       2.5514860
       3720.3985       2.6083820
       3721.5984       2.6194760
       3722.7984       2.6933220
       3723.9983       2.6210240
       3725.1982       2.4850720
       3726.3981       2.5262640
       3727.5980       2.6554420
       3728.7979       2.5631200
       3729.9978       2.5963060
       3731.1977       2.6708160
       3732.3976       2.7007200
       3733.5975       2.6340980
       3734.7974       2.7192720
       3735.9973       2.7017880
       3737.1972       2.6969120
       3738.3972       2.8213260
       3739.5971       2.6810800
       3740.7970       2.7067940
       3741.9969       2.8229540
       3743.1968       2.7926360
       3744.3968       2.7076160
       3745.5967       2.7074860
       3746.7966       2.7325280
       3747.9965       2.6518720
       3749.1964       2.6820840
       3750.3963       2.6239400
       3751.5962       2.5419620
       3752.7961       2.4720120
       3753.9961       2.4435800
       3755.1960       2.4814760
       3756.3959       2.4315760
       3757.5958       2.3838920
       3758.7957       2.3335900
       3759.9956       2.2416120
       3761.1955       2.2664420
       3762.3954       2.2887880
       3763.5953       2.2985580
       3764.7952       2.1585760
       3765.9951       2.1556600
       3767.1950       2.0472100
       3768.3949       1.9795270
       3769.5949       2.1015100
       3770.7948       2.0395540
       3771.9947       1.9211758
       3773.1947       1.8120672
       3774.3946       1.8540220
       3775.5945       1.7199090
       3776.7944       1.5720864
       3777.9943       1.5853788
       3779.1942       1.5522592
       3780.3941       1.4710934
       3781.5940       1.3416894
       3782.7939       1.3489844
       3783.9938       1.3779962
       3785.1938       1.2956780
       3786.3937       1.2864166
       3787.5936       1.2506012
       3788.7935       1.2692756
       3789.9934       1.1479206
       3791.1933       1.1868750
       3792.3932       1.1347948
       3793.5931       1.0874362
       3794.7930       1.0715774
       3795.9929       1.0912124
       3797.1928       1.0741350
       3798.3927       1.0886308
       3799.5926       1.1428784
       3800.7926       1.1135514
       3801.9926       1.0742010
       3803.1925       1.0690628
       3804.3924       1.0474152
       3805.5923       1.0868704
       3806.7922       1.0126978
       3807.9921      0.98998580
       3809.1920       1.0181254
       3810.3919       1.0762668
       3811.5918      0.98012180
       3812.7917      0.96689200
       3813.9916      0.99078640
       3815.1915      0.94217840
       3816.3915      0.99704300
       3817.5914       1.0035186
       3818.7913      0.95312000
       3819.9912      0.96295820
       3821.1911      0.96170540
       3822.3910      0.95771940
       3823.5909       1.0244580
       3824.7908       1.0239040
       3825.9907       1.0198736
       3827.1906       1.0672490
       3828.3905       1.0595138
       3829.5904      0.98281640
       3830.7904       1.0820822
       3831.9904       1.0837568
       3833.1903       1.1598810
       3834.3902       1.1134348
       3835.5901       1.2239798
       3836.7900       1.1465868
       3837.9899       1.1556082
       3839.1898       1.2485996
       3840.3897       1.3103898
       3841.5896       1.3493576
       3842.7895       1.3606836
       3843.9894       1.3573896
       3845.1893       1.3333598
       3846.3893       1.3303980
       3847.5892       1.3909894
       3848.7891       1.4105854
       3849.9890       1.4235278
       3851.1889       1.4259494
       3852.3888       1.4718194
       3853.5887       1.5161282
       3854.7886       1.5342728
       3855.9885       1.6064672
       3857.1884       1.6015194
       3858.3883       1.5799686
       3859.5883       1.6114158
       3860.7882       1.6809498
       3861.9882       1.7011296
       3863.1881       1.7481506
       3864.3880       1.7599698
       3865.5879       1.7985716
       3866.7878       1.8723552
       3867.9877       1.8473028
       3869.1876       1.8997852
       3870.3875       1.9646628
       3871.5874       1.9651828
       3872.7873       1.9693322
       3873.9872       1.9963668
       3875.1871       2.0189360
       3876.3870       2.0036720
       3877.5870       2.0996800
       3878.7869       2.1452240
       3879.9868       2.1305100
       3881.1867       2.1954060
       3882.3866       2.2196480
       3883.5865       2.2589240
       3884.7864       2.2805740
       3885.9863       2.3323720
       3887.1862       2.2264160
       3888.3862       2.3001400
       3889.5861       2.3463120
       3890.7860       2.3980800
       3891.9859       2.3605060
       3893.1859       2.3843960
       3894.3858       2.5199420
       3895.5857       2.5644920
       3896.7856       2.5648240
       3897.9855       2.6496800
       3899.1854       2.6381360
       3900.3853       2.6833140
       3901.5852       2.7777560
       3902.7851       2.7654200
       3903.9850       2.7875000
       3905.1849       2.8192420
       3906.3848       2.9480080
       3907.5847       2.9097840
       3908.7847       2.9757040
       3909.9846       2.8596800
       3911.1845       3.0629140
       3912.3844       3.1037400
       3913.5843       3.0690660
       3914.7842       3.0344240
       3915.9841       3.1349320
       3917.1841       3.1464440
       3918.3840       3.1640040
       3919.5839       3.2160340
       3920.7838       3.1937560
       3921.9837       3.2296440
       3923.1836       3.2342860
       3924.3836       3.2705640
       3925.5835       3.4075100
       3926.7834       3.4447660
       3927.9833       3.4511800
       3929.1832       3.4037820
       3930.3831       3.3330060
       3931.5830       3.3171480
       3932.7829       3.2904940
       3933.9828       3.4709580
       3935.1827       3.5047880
       3936.3826       3.4750060
       3937.5825       3.5798460
       3938.7824       3.6987240
       3939.9824       3.6607420
       3941.1823       3.7679400
       3942.3822       3.7320480
       3943.5821       3.6762840
       3944.7820       3.8075080
       3945.9820       3.8597600
       3947.1819       3.9338180
       3948.3818       3.7590900
       3949.5817       3.7020560
       3950.7816       3.7089440
       3951.9815       3.7305880
       3953.1814       3.8567620
       3954.3813       3.9397580
       3955.5813       3.9413100
       3956.7812       4.0412740
       3957.9811       4.1544980
       3959.1810       4.1528180
       3960.3809       4.1915100
       3961.5808       4.2613200
       3962.7807       4.3179580
       3963.9806       4.2557700
       3965.1805       4.2950840
       3966.3804       4.1468160
       3967.5803       4.1833860
       3968.7802       4.1627600
       3969.9801       4.2567660
       3971.1801       4.3468300
       3972.3800       4.4350680
       3973.5799       4.4122160
       3974.7799       4.5024720
       3975.9798       4.3924920
       3977.1797       4.4198460
       3978.3796       4.5151320
       3979.5795       4.4864460
       3980.7794       4.5393120
       3981.9793       4.4753020
       3983.1792       4.4744700
       3984.3791       4.3907660
       3985.5790       4.3683640
       3986.7790       4.3134040
       3987.9789       4.3369640
       3989.1788       4.3961060
       3990.3787       4.4485620
       3991.5786       4.5174180
       3992.7785       4.5060760
       3993.9784       4.4581380
       3995.1783       4.4104580
       3996.3782       4.4239180
       3997.5781       4.2865660
       3998.7780       4.2819580
       3999.9779       4.2602900
       4001.1779       4.3714700
       4002.3778       4.2118780
       4003.5778       4.2447500
       4004.7777       4.2260860
       4005.9776       4.0977760
       4007.1775       4.1529160
       4008.3774       4.1739780
       4009.5773       4.1352120
       4010.7772       4.1050040
       4011.9771       4.1325180
       4013.1770       4.1190900
       4014.3769       4.1028480
       4015.5768       4.0915020
       4016.7768       4.0641680
       4017.9767       4.0865540
       4019.1766       4.0005760
       4020.3765       3.9441820
       4021.5764       4.0116940
       4022.7763       3.9790380
       4023.9762       3.8746360
       4025.1761       3.8935740
       4026.3760       3.9682300
       4027.5759       3.8838540
       4028.7758       3.8209800
       4029.9757       3.7522720
       4031.1756       3.7792580
       4032.3757       3.6709860
       4033.5756       3.7434080
       4034.7755       3.7324000
       4035.9754       3.6865580
       4037.1753       3.6685880
       4038.3752       3.6888380
       4039.5751       3.6924180
       4040.7750       3.6292740
       4041.9749       3.5764940
       4043.1748       3.5871760
       4044.3747       3.6384940
       4045.5746       3.6435360
       4046.7745       3.6267800
       4047.9745       3.5833000
       4049.1744       3.4880400
       4050.3743       3.5165760
       4051.5742       3.4846060
       4052.7741       3.4119340
       4053.9740       3.4828140
       4055.1739       3.4085500
       4056.3738       3.4072120
       4057.5737       3.4280800
       4058.7736       3.3580180
       4059.9735       3.4534840
       4061.1735       3.3624780
       4062.3734       3.4008380
       4063.5734       3.3974760
       4064.7733       3.3470920
       4065.9732       3.2926320
       4067.1731       3.3087040
       4068.3730       3.2287700
       4069.5729       3.2880300
       4070.7728       3.2802540
       4071.9727       3.2475920
       4073.1726       3.2139540
       4074.3725       3.1911520
       4075.5724       3.1528440
       4076.7723       3.0952800
       4077.9722       3.0762240
       4079.1722       3.1162360
       4080.3721       3.1582540
       4081.5720       3.1249860
       4082.7719       3.0794360
       4083.9718       3.0052100
       4085.1717       3.0203440
       4086.3716       3.0175400
       4087.5715       2.9250180
       4088.7714       2.9008200
       4089.9714       2.8707840
       4091.1713       2.8098880
       4092.3712       2.9264940
       4093.5711       2.7954440
       4094.7711       2.8506160
       4095.9710       2.7851200
       4097.1709       2.7700740
       4098.3708       2.7827460
       4099.5707       2.6860400
       4100.7706       2.7751820
       4101.9705       2.6490980
       4103.1704       2.6792560
       4104.3703       2.6840000
       4105.5702       2.6690140
       4106.7701       2.6103080
       4107.9700       2.5847200
       4109.1699       2.6445560
       4110.3699       2.5819840
       4111.5698       2.5357000
       4112.7697       2.5277460
       4113.9696       2.5186400
       4115.1695       2.5429620
       4116.3694       2.5289300
       4117.5693       2.4911520
       4118.7693       2.4615280
       4119.9692       2.3943220
       4121.1691       2.3484680
       4122.3690       2.3677340
       4123.5689       2.3341620
       4124.7688       2.3618480
       4125.9688       2.3738960
       4127.1687       2.3813760
       4128.3686       2.3502000
       4129.5685       2.2431480
       4130.7684       2.2737400
       4131.9683       2.2284180
       4133.1682       2.2461240
       4134.3681       2.1820140
       4135.5680       2.1724360
       4136.7679       2.1805980
       4137.9678       2.1390700
       4139.1677       2.1593140
       4140.3677       2.1221320
       4141.5676       2.0614460
       4142.7675       2.0929600
       4143.9674       1.9786414
       4145.1673       2.0080160
       4146.3673       2.0159620
       4147.5672       2.0081640
       4148.7671       2.0160900
       4149.9670       2.0053500
       4151.1669       1.9752806
       4152.3668       1.9725222
       4153.5667       1.9509778
       4154.7666       1.9157246
       4155.9666       1.9148412
       4157.1665       1.8892938
       4158.3664       1.8749380
       4159.5663       1.8644142
       4160.7662       1.8798196
       4161.9661       1.8694822
       4163.1660       1.8697022
       4164.3659       1.8342620
       4165.5658       1.8096750
       4166.7657       1.8385824
       4167.9656       1.7937790
       4169.1655       1.7550632
       4170.3654       1.8221274
       4171.5654       1.8121404
       4172.7653       1.8641982
       4173.9652       1.8242586
       4175.1652       1.7700592
       4176.3651       1.7942302
       4177.5650       1.7249580
       4178.7649       1.7514620
       4179.9648       1.7823006
       4181.1647       1.7670864
       4182.3646       1.7731150
       4183.5645       1.7804974
       4184.7644       1.7608518
       4185.9643       1.7918276
       4187.1643       1.7758754
       4188.3642       1.7969578
       4189.5641       1.8206146
       4190.7640       1.8244676
       4191.9639       1.8020030
       4193.1638       1.8175594
       4194.3637       1.8155900
       4195.5636       1.8047588
       4196.7635       1.8483014
       4197.9634       1.8449116
       4199.1633       1.8227818
       4200.3632       1.8631800
       4201.5631       1.8692346
       4202.7631       1.8921570
       4203.9631       1.8870704
       4205.1630       1.8914560
       4206.3629       1.9356886
       4207.5628       1.9366246
       4208.7627       1.8856364
       4209.9626       1.9840584
       4211.1625       1.9750568
       4212.3624       2.0145500
       4213.5623       2.0156460
       4214.7622       1.9943374
       4215.9621       2.0010940
       4217.1620       1.9873828
       4218.3620       2.0275500
       4219.5619       2.0362800
       4220.7618       2.0884400
       4221.9617       2.1102380
       4223.1616       2.0774400
       4224.3615       2.0345120
       4225.5614       2.0724060
       4226.7613       2.0871360
       4227.9612       2.0994140
       4229.1611       2.0880780
       4230.3610       2.0488740
       4231.5609       2.0333900
       4232.7609       2.0806800
       4233.9609       2.0939920
       4235.1608       2.0909860
       4236.3607       2.1178240
       4237.5606       2.1336360
       4238.7605       2.0869640
       4239.9604       2.0758380
       4241.1603       2.1037500
       4242.3602       2.1272620
       4243.5601       2.1404380
       4244.7600       2.1239060
       4245.9599       2.1193020
       4247.1598       2.1172820
       4248.3597       2.1294940
       4249.5597       2.1290700
       4250.7596       2.0954820
       4251.9595       2.1322080
       4253.1594       2.1052980
       4254.3593       2.1163020
       4255.5592       2.0573480
       4256.7591       2.0715060
       4257.9590       2.1374160
       4259.1589       2.0952700
       4260.3588       2.1600080
       4261.5588       2.1525300
       4262.7587       2.1089480
       4263.9586       2.0782580
       4265.1586       2.1543360
       4266.3585       2.1464780
       4267.5584       2.1272420
       4268.7583       2.1269980
       4269.9582       2.1542820
       4271.1581       2.0986380
       4272.3580       2.1138460
       4273.5579       2.1713360
       4274.7578       2.1646420
       4275.9577       2.1128300
       4277.1576       2.1290380
       4278.3575       2.1493940
       4279.5574       2.1542760
       4280.7574       2.1639180
       4281.9573       2.1329560
       4283.1572       2.1315960
       4284.3571       2.1509560
       4285.5570       2.1825880
       4286.7569       2.1629820
       4287.9568       2.1329560
       4289.1567       2.1376360
       4290.3567       2.1628580
       4291.5566       2.2211200
       4292.7565       2.2262600
       4293.9564       2.1594780
       4295.1564       2.1705240
       4296.3563       2.2139600
       4297.5562       2.1779920
       4298.7561       2.1915360
       4299.9560       2.2530920
       4301.1559       2.2509300
       4302.3558       2.2722920
       4303.5557       2.1929280
       4304.7556       2.1952480
       4305.9555       2.2203920
       4307.1554       2.2317180
       4308.3553       2.2703840
       4309.5552       2.2193060
       4310.7552       2.2073980
       4311.9551       2.2729600
       4313.1550       2.2768180
       4314.3549       2.2758440
       4315.5548       2.2953680
       4316.7547       2.2981380
       4317.9546       2.2924960
       4319.1546       2.2868780
       4320.3545       2.3392300
       4321.5544       2.3259000
       4322.7543       2.3184320
       4323.9542       2.3107740
       4325.1541       2.3455080
       4326.3541       2.3617240
       4327.5540       2.3517020
       4328.7539       2.3680560
       4329.9538       2.3593580
       4331.1537       2.3687560
       4332.3536       2.3815540
       4333.5535       2.3652580
       4334.7534       2.3685320
       4335.9533       2.3826680
       4337.1532       2.3489660
       4338.3531       2.3330920
       4339.5530       2.3657680
       4340.7529       2.3652780
       4341.9529       2.3741280
       4343.1528       2.3851660
       4344.3527       2.3556900
       4345.5526       2.3533740
       4346.7525       2.3621040
       4347.9525       2.3431740
       4349.1524       2.3330960
       4350.3523       2.3675160
       4351.5522       2.3419080
       4352.7521       2.3673160
       4353.9520       2.3622220
       4355.1519       2.3972880
       4356.3518       2.3688480
       4357.5518       2.4849540
       4358.7517       2.4715920
       4359.9516       2.4368320
       4361.1515       2.4369840
       4362.3514       2.3392840
       4363.5513       2.2942100
       4364.7512       2.2837720
       4365.9511       2.2717800
       4367.1510       2.2836540
       4368.3509       2.2926560
       4369.5508       2.2304920
       4370.7507       2.2175660
       4371.9506       2.2053980
       4373.1506       2.1890980
       4374.3505       2.1922700
       4375.5504       2.1577360
       4376.7504       2.1365180
       4377.9503       2.1327060
       4379.1502       2.1192800
       4380.3501       2.0864580
       4381.5500       2.1101940
       4382.7499       2.1120600
       4383.9498       2.1108040
       4385.1497       2.1033840
       4386.3496       2.1065040
       4387.5495       2.1081540
       4388.7495       2.0591780
       4389.9494       2.0341200
       4391.1493       1.9843138
       4392.3492       2.0092660
       4393.5491       1.9805074
       4394.7490       1.9950258
       4395.9489       1.9988518
       4397.1488       1.9738844
       4398.3487       1.9796228
       4399.5486       1.9595954
       4400.7485       1.9611126
       4401.9484       1.9207586
       4403.1483       1.9301208
       4404.3483       1.9306906
       4405.5483       1.9103376
       4406.7482       1.9334184
       4407.9481       1.8866928
       4409.1480       1.9108538
       4410.3479       1.9328476
       4411.5478       1.8509440
       4412.7477       1.9048846
       4413.9476       1.9194856
       4415.1475       1.8777436
       4416.3474       1.8814672
       4417.5473       1.9064242
       4418.7472       1.9128794
       4419.9472       1.9182304
       4421.1471       1.8842284
       4422.3470       1.9021936
