Units are: observed wavelength (Ang), observed flux (10^-15 erg/s/cm^2/Ang)
       3476.0000     -0.28835230
       3477.4700      0.31985660
       3478.9400      0.40665460
       3480.4100       1.0029790
       3481.8800      0.58117590
       3483.3500      0.51295610
       3484.8200      0.56881690
       3486.2900      0.41066590
       3487.7600      0.66416220
       3489.2300      0.25040140
       3490.7000      0.17928640
       3492.1700      0.47051400
       3493.6400      0.40725190
       3495.1100     -0.17283850
       3496.5800     -0.32298240
       3498.0500      0.21390970
       3499.5200      0.44464210
       3500.9900      0.58724960
       3502.4600      0.56747960
       3503.9300      0.40668550
       3505.4000      0.78457570
       3506.8700      0.75424340
       3508.3400      0.45375270
       3509.8100      0.42917540
       3511.2800      0.64688990
       3512.7500      0.59508850
       3514.2200      0.12644440
       3515.6900      0.32207890
       3517.1600      0.69369590
       3518.6300      0.21517430
       3520.1000      0.28339510
       3521.5700      0.71933910
       3523.0400      0.45986650
       3524.5100      0.39349250
       3525.9800      0.76675210
       3527.4500      0.64452800
       3528.9200     0.074126940
       3530.3900      0.19258880
       3531.8599      0.59351170
       3533.3300      0.52303000
       3534.8000      0.39900220
       3536.2700      0.56163640
       3537.7400       1.0608530
       3539.2100       1.0985920
       3540.6800      0.61892100
       3542.1500      0.47486160
       3543.6200      0.63597120
       3545.0900      0.31466540
       3546.5600    0.0085832070
       3548.0300      0.76820560
       3549.5000       1.0299360
       3550.9700      0.64362300
       3552.4400      0.39273100
       3553.9100      0.43579910
       3555.3800      0.52387650
       3556.8500      0.50431140
       3558.3200      0.47641460
       3559.7900      0.26425170
       3561.2600      0.15142400
       3562.7300     0.099525030
       3564.2000    -0.045022500
       3565.6700      0.17879210
       3567.1400      0.10210880
       3568.6100      0.50036650
       3570.0800      0.73045010
       3571.5500      0.46587260
       3573.0200      0.68886010
       3574.4900      0.51115320
       3575.9600      0.34753930
       3577.4300      0.51319970
       3578.9000      0.67407060
       3580.3700      0.60643620
       3581.8400      0.41319750
       3583.3100      0.45545310
       3584.7800      0.83400860
       3586.2500      0.93155560
       3587.7200      0.42117370
       3589.1900      0.36374510
       3590.6600      0.58824560
       3592.1300      0.47479580
       3593.6000      0.27529710
       3595.0700     0.078996370
       3596.5400      0.25145350
       3598.0100      0.79709200
       3599.4800      0.61236380
       3600.9500      0.47703550
       3602.4200      0.60809860
       3603.8900      0.33397780
       3605.3600      0.28498480
       3606.8300      0.54831780
       3608.3000      0.51876290
       3609.7700      0.13824290
       3611.2400     0.088199290
       3612.7100      0.38983020
       3614.1800      0.51580300
       3615.6500      0.51149150
       3617.1200      0.46181930
       3618.5900      0.44465950
       3620.0600      0.71504370
       3621.5300      0.56520550
       3623.0000      0.33527740
       3624.4700      0.63941660
       3625.9400      0.79105020
       3627.4100      0.71215860
       3628.8800      0.39895310
       3630.3500      0.47415300
       3631.8200      0.53818000
       3633.2900      0.44916140
       3634.7600      0.15992940
       3636.2300      0.26317750
       3637.7000      0.29020700
       3639.1700      0.39767410
       3640.6400      0.57432700
       3642.1100      0.34799770
       3643.5800      0.20608370
       3645.0500      0.37235250
       3646.5200      0.24392040
       3647.9900      0.34606780
       3649.4600      0.40345920
       3650.9300      0.66455030
       3652.4000      0.79715000
       3653.8700      0.52936920
       3655.3400      0.53489890
       3656.8100      0.33681530
       3658.2800      0.32748330
       3659.7500      0.52946950
       3661.2200      0.50568650
       3662.6900      0.52632660
       3664.1600      0.57909380
       3665.6300      0.89930520
       3667.1000      0.93384000
       3668.5700      0.52852090
       3670.0400      0.57162870
       3671.5100      0.66015570
       3672.9800      0.66986820
       3674.4500      0.71978370
       3675.9200      0.87327670
       3677.3900      0.67376950
       3678.8600      0.35626610
       3680.3300      0.34033710
       3681.8000      0.45690980
       3683.2700      0.55279080
       3684.7400      0.59593910
       3686.2100      0.52011280
       3687.6800      0.44128480
       3689.1500      0.62722740
       3690.6200      0.86944310
       3692.0900      0.76828100
       3693.5600      0.40311940
       3695.0300      0.56545930
       3696.5000      0.72743760
       3697.9700      0.70717350
       3699.4400      0.55756530
       3700.9100      0.79562450
       3702.3800      0.85123440
       3703.8500      0.65621020
       3705.3200      0.56997130
       3706.7900      0.63539110
       3708.2600      0.75088160
       3709.7300      0.61552220
       3711.2000      0.53008230
       3712.6700      0.70139770
       3714.1400      0.77835860
       3715.6100      0.56206790
       3717.0800      0.52875280
       3718.5500      0.64036010
       3720.0200      0.73558220
       3721.4900      0.53902580
       3722.9600      0.52191100
       3724.4300      0.95322500
       3725.9000      0.92121830
       3727.3700      0.49724160
       3728.8400      0.43457710
       3730.3100      0.55873170
       3731.7800      0.76075480
       3733.2500      0.60658430
       3734.7200      0.48697050
       3736.1900      0.71203840
       3737.6600      0.62067070
       3739.1300      0.65393170
       3740.6000      0.93759570
       3742.0700       1.2157860
       3743.5400       1.0593450
       3745.0100      0.72365480
       3746.4800      0.77430900
       3747.9500      0.76951200
       3749.4200      0.75501540
       3750.8900      0.81524310
       3752.3600      0.70294520
       3753.8300      0.49287880
       3755.3000      0.64061120
       3756.7700      0.92586970
       3758.2400      0.80525510
       3759.7100      0.64600050
       3761.1800      0.69569630
       3762.6500      0.72687770
       3764.1200      0.71284290
       3765.5900      0.68185750
       3767.0600      0.60363160
       3768.5300      0.62536200
       3770.0000      0.54096470
       3771.4700      0.57267370
       3772.9400      0.67796620
       3774.4100      0.69914900
       3775.8800      0.78252130
       3777.3500      0.58916830
       3778.8200      0.38357400
       3780.2900      0.39512310
       3781.7600      0.45739310
       3783.2300      0.70668330
       3784.7000      0.70671020
       3786.1700      0.57855110
       3787.6400      0.60916110
       3789.1100      0.55066370
       3790.5800      0.46178000
       3792.0500      0.41360470
       3793.5200      0.36246390
       3794.9900      0.39463510
       3796.4600      0.36459760
       3797.9300      0.35400680
       3799.4000      0.35033860
       3800.8700      0.39827430
       3802.3400      0.40764280
       3803.8100      0.40767510
       3805.2800      0.37396230
       3806.7500      0.33904170
       3808.2200      0.37000220
       3809.6900      0.33580510
       3811.1600      0.28968540
       3812.6300      0.39134960
       3814.1000      0.34703410
       3815.5700      0.27502450
       3817.0400      0.35573920
       3818.5100      0.50301860
       3819.9800      0.36344360
       3821.4500      0.16713050
       3822.9200      0.29379760
       3824.3900      0.22686000
       3825.8600      0.31772460
       3827.3300      0.42566900
       3828.8000      0.43504770
       3830.2700      0.50119540
       3831.7400      0.27245550
       3833.2100      0.26119740
       3834.6800      0.53293700
       3836.1500      0.54271450
       3837.6200      0.44872680
       3839.0900      0.47762860
       3840.5600      0.34427750
       3842.0300      0.37225130
       3843.5000      0.55052300
       3844.9699      0.48406020
       3846.4400      0.39120980
       3847.9100      0.39849010
       3849.3800      0.62031950
       3850.8500      0.55716190
       3852.3200      0.37604870
       3853.7900      0.52091010
       3855.2600      0.58936260
       3856.7300      0.63028260
       3858.2000      0.70300310
       3859.6700      0.59078010
       3861.1400      0.61743930
       3862.6100      0.71466770
       3864.0800      0.68276610
       3865.5500      0.70532160
       3867.0200      0.71703960
       3868.4900      0.69900690
       3869.9600      0.94701830
       3871.4300      0.78892760
       3872.9000      0.71788440
       3874.3700      0.88247310
       3875.8400      0.72192700
       3877.3100      0.68994390
       3878.7800      0.80331730
       3880.2500      0.77246270
       3881.7200      0.68614760
       3883.1900      0.73310240
       3884.6600      0.88824680
       3886.1300      0.87547330
       3887.6000      0.83340900
       3889.0700      0.89957130
       3890.5400      0.79404360
       3892.0100      0.78140260
       3893.4800      0.88178120
       3894.9500      0.82896170
       3896.4200      0.86935250
       3897.8900      0.96212940
       3899.3600      0.88924950
       3900.8300      0.77904420
       3902.3000      0.91964680
       3903.7700      0.90694170
       3905.2400      0.90865080
       3906.7100       1.0710500
       3908.1800       1.0832500
       3909.6500      0.99077260
       3911.1200      0.92755680
       3912.5900      0.80716580
       3914.0600      0.86646260
       3915.5300       1.0512110
       3917.0000       1.0915260
       3918.4700       1.1150490
       3919.9400       1.1257380
       3921.4100       1.0065360
       3922.8800       1.0840750
       3924.3500       1.0676080
       3925.8200       1.1071620
       3927.2900       1.2067800
       3928.7600       1.1799740
       3930.2300       1.0655800
       3931.7000       1.2350600
       3933.1700       1.3858610
       3934.6400       1.1817110
       3936.1100       1.0583360
       3937.5800       1.2586680
       3939.0500       1.3879710
       3940.5200       1.2923600
       3941.9900       1.2929640
       3943.4600       1.3460300
       3944.9300       1.3279670
       3946.4000       1.3693550
       3947.8700       1.2320390
       3949.3400       1.0713940
       3950.8100       1.1525120
       3952.2800       1.3027520
       3953.7500       1.2822570
       3955.2200       1.2629800
       3956.6900       1.4084380
       3958.1600       1.4097160
       3959.6300       1.4303320
       3961.1000       1.4186050
       3962.5700       1.3601240
       3964.0400       1.4235000
       3965.5100       1.3492630
       3966.9800       1.3183410
       3968.4500       1.3949470
       3969.9200       1.4631320
       3971.3900       1.4754710
       3972.8600       1.5831420
       3974.3300       1.5349380
       3975.8000       1.4433330
       3977.2700       1.5364580
       3978.7400       1.5419280
       3980.2100       1.5384830
       3981.6800       1.6075860
       3983.1500       1.7283340
       3984.6200       1.5715560
       3986.0900       1.4211630
       3987.5600       1.5338080
       3989.0300       1.4538400
       3990.5000       1.4894150
       3991.9700       1.5849790
       3993.4400       1.4157470
       3994.9100       1.5441390
       3996.3800       1.5896180
       3997.8500       1.5225480
       3999.3200       1.4698030
       4000.7900       1.4799930
       4002.2600       1.4649370
       4003.7300       1.4208850
       4005.2000       1.4583010
       4006.6700       1.3850180
       4008.1400       1.4936910
       4009.6100       1.5587860
       4011.0800       1.3835270
       4012.5500       1.3526460
       4014.0200       1.4438790
       4015.4900       1.4153340
       4016.9600       1.5351980
       4018.4300       1.5864080
       4019.9000       1.5071470
       4021.3700       1.4963660
       4022.8400       1.4293680
       4024.3100       1.4367830
       4025.7800       1.3345630
       4027.2500       1.3017920
       4028.7200       1.4432030
       4030.1900       1.4865810
       4031.6600       1.4009560
       4033.1300       1.4203790
       4034.6000       1.3928570
       4036.0700       1.3923870
       4037.5400       1.3821940
       4039.0100       1.4168890
       4040.4800       1.4443190
       4041.9500       1.4657870
       4043.4200       1.3745080
       4044.8900       1.2699330
       4046.3600       1.2989600
       4047.8300       1.3804170
       4049.3000       1.2898030
       4050.7700       1.2591060
       4052.2400       1.2848520
       4053.7100       1.3151610
       4055.1800       1.3092030
       4056.6500       1.1772740
       4058.1200       1.1756610
       4059.5900       1.4379570
       4061.0600       1.4707570
       4062.5300       1.2202300
       4064.0000       1.2614630
       4065.4700       1.2568650
       4066.9400       1.1439100
       4068.4100       1.2071070
       4069.8800       1.3362290
       4071.3500       1.3178480
       4072.8200       1.2271360
       4074.2900       1.2451190
       4075.7600       1.2482290
       4077.2300       1.1886420
       4078.7000       1.1710810
       4080.1700       1.1719920
       4081.6400       1.0850810
       4083.1100       1.1088810
       4084.5800       1.1807470
       4086.0500       1.1277540
       4087.5200       1.0922870
       4088.9900       1.1209970
       4090.4600       1.1724200
       4091.9300       1.1344950
       4093.4000       1.0566500
       4094.8700       1.0479130
       4096.3400       1.0767860
       4097.8100       1.0974080
       4099.2800       1.0846580
       4100.7500       1.0058470
       4102.2200       1.0625610
       4103.6900       1.1151300
       4105.1600       1.1280150
       4106.6300       1.1073560
       4108.1000      0.99946400
       4109.5700      0.98696880
       4111.0400      0.89326420
       4112.5100      0.90160310
       4113.9800      0.93853490
       4115.4500      0.89539120
       4116.9200      0.86421050
       4118.3900      0.82958640
       4119.8600      0.82239980
       4121.3300      0.95734350
       4122.8000      0.92852870
       4124.2700      0.76068170
       4125.7400      0.74795990
       4127.2100      0.90411140
       4128.6800      0.88346680
       4130.1500      0.72631040
       4131.6200      0.76449430
       4133.0900      0.82476940
       4134.5600      0.80325210
       4136.0300      0.80412270
       4137.5000      0.83661280
       4138.9700      0.80078160
       4140.4400      0.80462980
       4141.9100      0.76355660
       4143.3800      0.68927270
       4144.8500      0.72066560
       4146.3200      0.81356080
       4147.7900      0.75662860
       4149.2600      0.72466150
       4150.7300      0.69708350
       4152.2000      0.65382180
       4153.6700      0.73848530
       4155.1400      0.77201660
       4156.6100      0.73492570
       4158.0799      0.63613640
       4159.5500      0.66434200
       4161.0200      0.63833890
       4162.4900      0.76242730
       4163.9600      0.72896950
       4165.4300      0.65216070
       4166.9000      0.73306070
       4168.3700      0.70838430
       4169.8400      0.55211100
       4171.3100      0.57480350
       4172.7800      0.64217000
       4174.2500      0.68765970
       4175.7200      0.67295930
       4177.1900      0.61483920
       4178.6600      0.57599490
       4180.1300      0.69153290
       4181.6000      0.71232940
       4183.0700      0.60620610
       4184.5400      0.60550090
       4186.0100      0.72119550
       4187.4800      0.66603650
       4188.9500      0.53439030
       4190.4200      0.66725960
       4191.8900      0.76258310
       4193.3600      0.62431580
       4194.8300      0.57586920
       4196.3000      0.73242340
       4197.7700      0.70696900
       4199.2400      0.68230860
       4200.7100      0.67205150
       4202.1800      0.67470750
       4203.6500      0.63997390
       4205.1200      0.61655970
       4206.5900      0.78819670
       4208.0600      0.75269900
       4209.5300      0.63080260
       4211.0000      0.65593880
       4212.4700      0.66674510
       4213.9400      0.71585840
       4215.4100      0.70905510
       4216.8800      0.78623210
       4218.3500      0.78775610
       4219.8200      0.72500370
       4221.2900      0.82579540
       4222.7600      0.83608840
       4224.2300      0.75409250
       4225.7000      0.75752200
       4227.1700      0.76647070
       4228.6400      0.75310990
       4230.1100      0.79609600
       4231.5800      0.71213640
       4233.0500      0.72754500
       4234.5200      0.74566290
       4235.9900      0.71867200
       4237.4600      0.70326800
       4238.9300      0.72695240
       4240.4000      0.73823030
       4241.8700      0.64137550
       4243.3400      0.68919590
       4244.8100      0.72352030
       4246.2800      0.70403340
       4247.7500      0.69895210
       4249.2200      0.61247260
       4250.6900      0.60862790
       4252.1600      0.74752600
       4253.6300      0.81522700
       4255.1000      0.67709940
       4256.5700      0.65003420
       4258.0400      0.76880510
       4259.5100      0.79604670
       4260.9800      0.82125460
       4262.4500      0.76734810
       4263.9200      0.70529630
       4265.3900      0.78851830
       4266.8600      0.81303200
       4268.3300      0.73894100
       4269.8000      0.71591690
       4271.2700      0.67086040
       4272.7400      0.67505410
       4274.2100      0.78317900
       4275.6800      0.70491390
       4277.1500      0.65624740
       4278.6200      0.71653050
       4280.0900      0.67277870
       4281.5600      0.71429320
       4283.0300      0.82462750
       4284.5000      0.85903020
       4285.9700      0.84008750
       4287.4400      0.88134230
       4288.9100      0.91998260
       4290.3800      0.78416830
       4291.8500      0.68504170
       4293.3200      0.76196090
       4294.7900      0.81839900
       4296.2600      0.82236620
       4297.7300      0.76680110
       4299.2000      0.77284590
       4300.6700      0.84849820
       4302.1400      0.78854370
       4303.6100      0.69128760
       4305.0800      0.78974850
       4306.5500      0.89270620
       4308.0200      0.86032470
       4309.4900      0.78072270
       4310.9600      0.76048710
       4312.4300      0.73911140
       4313.9000      0.70769990
       4315.3700      0.71675280
       4316.8400      0.73907860
       4318.3100      0.79589810
       4319.7800      0.82674970
       4321.2500      0.77385400
       4322.7200      0.75249200
       4324.1900      0.74515940
       4325.6600      0.74729250
       4327.1300      0.71323350
       4328.6000      0.77885500
       4330.0700      0.91190970
       4331.5400      0.92388740
       4333.0100      0.85222450
       4334.4800      0.85962490
       4335.9500      0.84103520
       4337.4200      0.82306870
       4338.8900      0.87020560
       4340.3600      0.83843470
       4341.8300      0.92102470
       4343.3000      0.99585680
       4344.7700      0.89572890
       4346.2400      0.80106790
       4347.7100      0.74391470
       4349.1800      0.74618030
       4350.6500      0.83997220
       4352.1200      0.90309510
       4353.5900      0.90047870
       4355.0600      0.74011310
       4356.5300      0.65447730
       4358.0000      0.78066720
       4359.4700      0.88717310
       4360.9400      0.82043940
