Units are: observed wavelength (Ang), observed flux (10^-15 erg/s/cm^2/Ang)
       3633.5700      0.64272915
       3635.5600      0.14529423
       3637.5500     -0.16583052
       3639.5400     0.062311014
       3641.5300      0.31631132
       3643.5200      0.38316080
       3645.5100      0.20677605
       3647.5000     0.014948176
       3649.4900     -0.18191311
       3651.4800      0.21949299
       3653.4700      0.28001779
       3655.4600     0.066325976
       3657.4500    -0.043453121
       3659.4400      0.10692586
       3661.4300      0.30831828
       3663.4200     0.049878415
       3665.4100    -0.021278502
       3667.4000      0.16032364
       3669.3900     0.063977539
       3671.3800     0.042629093
       3673.3700     0.066094502
       3675.3600      0.10915072
       3677.3500      0.13860906
       3679.3400      0.21206445
       3681.3300      0.19789053
       3683.3200      0.26471997
       3685.3100      0.35065171
       3687.3000     0.086476769
       3689.2900      0.22179202
       3691.2800      0.26701285
       3693.2700      0.31981828
       3695.2600      0.11624256
       3697.2500      0.25962984
       3699.2400      0.23229566
       3701.2300      0.13653955
       3703.2200      0.10064561
       3705.2100      0.27925215
       3707.2000      0.24874019
       3709.1900      0.16109033
       3711.1800     0.040889062
       3713.1700      0.12598736
       3715.1600     0.096796155
       3717.1500      0.21786507
       3719.1400      0.27464280
       3721.1300      0.22214273
       3723.1200      0.20605775
       3725.1100      0.23085012
       3727.1000      0.21011051
       3729.0900      0.26295404
       3731.0800      0.22949670
       3733.0700      0.16884795
       3735.0600      0.21196847
       3737.0500      0.17050146
       3739.0400      0.15869816
       3741.0300      0.21439475
       3743.0200      0.18455110
       3745.0100      0.15286700
       3747.0000      0.17582027
       3748.9900      0.16968425
       3750.9800      0.21089254
       3752.9700      0.19451335
       3754.9600      0.22127369
       3756.9500      0.21518710
       3758.9400      0.17062980
       3760.9300      0.14415487
       3762.9200      0.17591783
       3764.9100      0.15011561
       3766.9001      0.16776783
       3768.8900      0.14063130
       3770.8800      0.16006183
       3772.8700      0.12710070
       3774.8600      0.13896904
       3776.8500      0.15165478
       3778.8400      0.14964700
       3780.8300      0.16377924
       3782.8200      0.19079419
       3784.8100      0.18112292
       3786.8000      0.16841882
       3788.7900      0.16324875
       3790.7800      0.13923184
       3792.7700      0.11390859
       3794.7600     0.095612780
       3796.7500      0.12211305
       3798.7400      0.13679801
       3800.7300      0.12256995
       3802.7200     0.087446783
       3804.7100      0.14952967
       3806.7000      0.12088149
       3808.6900     0.066915425
       3810.6800     0.032439793
       3812.6700     0.029076502
       3814.6600     0.055612255
       3816.6500      0.11145058
       3818.6400      0.10578765
       3820.6300     0.097304924
       3822.6200      0.10546038
       3824.6100      0.13054551
       3826.6000      0.12746098
       3828.5900      0.11094483
       3830.5800      0.11078241
       3832.5700      0.12524696
       3834.5600      0.11359120
       3836.5500     0.092599193
       3838.5400     0.065615865
       3840.5300     0.075974589
       3842.5200      0.10857034
       3844.5100     0.090234457
       3846.5000      0.10587022
       3848.4900      0.12381836
       3850.4800      0.11604547
       3852.4700      0.12527169
       3854.4600      0.14685813
       3856.4500      0.14887660
       3858.4400      0.15074715
       3860.4300      0.14573661
       3862.4200      0.17139009
       3864.4100      0.17763771
       3866.4000      0.19318430
       3868.3900      0.17781604
       3870.3800      0.18955836
       3872.3700      0.20939768
       3874.3600      0.22074965
       3876.3500      0.21533903
       3878.3400      0.24159959
       3880.3300      0.24102701
       3882.3200      0.23124382
       3884.3100      0.22840919
       3886.3000      0.25322767
       3888.2900      0.23106171
       3890.2800      0.25397216
       3892.2700      0.29076686
       3894.2600      0.30176235
       3896.2500      0.29299564
       3898.2400      0.25323318
       3900.2300      0.25664040
       3902.2200      0.29795555
       3904.2100      0.32467639
       3906.2000      0.33822697
       3908.1900      0.33143570
       3910.1800      0.34859585
       3912.1700      0.38148292
       3914.1600      0.37913337
       3916.1500      0.35306470
       3918.1400      0.33922590
       3920.1300      0.41378316
       3922.1200      0.36910548
       3924.1100      0.37594845
       3926.1000      0.39066335
       3928.0900      0.41006774
       3930.0800      0.37174042
       3932.0700      0.37005650
       3934.0600      0.38654303
       3936.0500      0.41171804
       3938.0400      0.41551098
       3940.0300      0.44520658
       3942.0200      0.45896539
       3944.0100      0.44093222
       3946.0000      0.42229301
       3947.9900      0.42940675
       3949.9800      0.42493912
       3951.9700      0.41252849
       3953.9600      0.41541349
       3955.9500      0.45821709
       3957.9400      0.45845976
       3959.9300      0.46499250
       3961.9200      0.44548501
       3963.9100      0.46727957
       3965.9000      0.47829688
       3967.8900      0.46568188
       3969.8800      0.48779819
       3971.8700      0.50416819
       3973.8600      0.45172207
       3975.8500      0.46684919
       3977.8400      0.49432888
       3979.8300      0.49080738
       3981.8200      0.46531540
       3983.8100      0.49151124
       3985.8000      0.48226695
       3987.7900      0.47606710
       3989.7800      0.48908834
       3991.7700      0.45641557
       3993.7600      0.44580595
       3995.7500      0.49659081
       3997.7400      0.49719590
       3999.7300      0.49196136
       4001.7200      0.50559930
       4003.7100      0.49516241
       4005.7000      0.49007208
       4007.6900      0.47851400
       4009.6800      0.47843367
       4011.6700      0.49516738
       4013.6600      0.49792769
       4015.6500      0.46219201
       4017.6400      0.47295289
       4019.6300      0.48440598
       4021.6200      0.49094455
       4023.6100      0.49356178
       4025.6000      0.48483190
       4027.5900      0.46239351
       4029.5800      0.46578369
       4031.5700      0.43633426
       4033.5600      0.46928991
       4035.5500      0.48196033
       4037.5400      0.46150070
       4039.5300      0.47265506
       4041.5200      0.50887974
       4043.5100      0.52280456
       4045.5000      0.47139085
       4047.4900      0.47934119
       4049.4800      0.48753888
       4051.4700      0.47575240
       4053.4600      0.45625088
       4055.4500      0.44723994
       4057.4400      0.45251348
       4059.4300      0.45494850
       4061.4200      0.42224782
       4063.4100      0.41056105
       4065.4000      0.41445025
       4067.3900      0.46191762
       4069.3800      0.42077493
       4071.3700      0.39499744
       4073.3600      0.43216788
       4075.3500      0.43698102
       4077.3400      0.42768492
       4079.3300      0.41333380
       4081.3200      0.42748734
       4083.3100      0.40686720
       4085.3000      0.38463223
       4087.2900      0.40975352
       4089.2800      0.40005724
       4091.2700      0.37883018
       4093.2600      0.40153987
       4095.2500      0.39834626
       4097.2400      0.37211427
       4099.2300      0.37753084
       4101.2200      0.35051091
       4103.2100      0.35797395
       4105.2000      0.37698563
       4107.1900      0.38208725
       4109.1800      0.35782347
       4111.1700      0.32429249
       4113.1600      0.31587133
       4115.1500      0.34216119
       4117.1400      0.31356944
       4119.1300      0.30970239
       4121.1200      0.32315728
       4123.1100      0.29466710
       4125.1000      0.28984595
       4127.0900      0.29216373
       4129.0800      0.29452470
       4131.0700      0.31353472
       4133.0600      0.30456284
       4135.0500      0.29185369
       4137.0400      0.30880823
       4139.0300      0.28354205
       4141.0200      0.28676631
       4143.0100      0.27884827
       4145.0000      0.26918058
       4146.9900      0.27430021
       4148.9800      0.26892478
       4150.9700      0.23452120
       4152.9600      0.26318326
       4154.9500      0.25398938
       4156.9400      0.25649154
       4158.9300      0.26287683
       4160.9200      0.25305373
       4162.9100      0.25371758
       4164.9000      0.25044809
       4166.8900      0.22400174
       4168.8800      0.23277821
       4170.8700      0.23061616
       4172.8600      0.20520414
       4174.8500      0.22132216
       4176.8400      0.19168120
       4178.8300      0.18714031
       4180.8200      0.20953496
       4182.8100      0.20079487
       4184.8000      0.19240149
       4186.7900      0.20257878
       4188.7800      0.19396163
       4190.7700      0.19550038
       4192.7600      0.19317553
       4194.7500      0.17449955
       4196.7400      0.17212872
       4198.7300      0.17762010
       4200.7200      0.18800721
       4202.7100      0.18074541
       4204.7000      0.18001081
       4206.6900      0.21015330
       4208.6800      0.20295316
       4210.6700      0.22818786
       4212.6600      0.23231348
       4214.6500      0.22762966
       4216.6400      0.24006412
       4218.6300      0.24521413
       4220.6200      0.24671073
       4222.6100      0.23421717
       4224.6000      0.22959100
       4226.5900      0.24912783
       4228.5800      0.26795448
       4230.5700      0.27054716
       4232.5600      0.25740404
       4234.5500      0.25558176
       4236.5400      0.25537650
       4238.5300      0.25848797
       4240.5200      0.26419851
       4242.5100      0.26217009
       4244.5000      0.25759209
       4246.4900      0.26318587
       4248.4800      0.25233206
       4250.4700      0.24237556
       4252.4600      0.24225968
       4254.4500      0.25808217
       4256.4400      0.27221108
       4258.4300      0.26903473
       4260.4200      0.26811737
       4262.4100      0.26166589
       4264.4000      0.25156045
       4266.3900      0.24752842
       4268.3800      0.26735696
       4270.3700      0.28720354
       4272.3600      0.27402310
       4274.3500      0.23690212
       4276.3400      0.25726503
       4278.3300      0.26757554
       4280.3200      0.25925286
       4282.3100      0.26534777
       4284.3000      0.26810413
       4286.2900      0.25774202
       4288.2800      0.25436579
       4290.2700      0.26134740
       4292.2600      0.25361890
       4294.2500      0.25432090
       4296.2400      0.26272590
       4298.2300      0.26035214
       4300.2200      0.25169866
       4302.2100      0.26893533
       4304.2000      0.28505703
       4306.1900      0.30004382
       4308.1800      0.26860829
       4310.1700      0.26044063
       4312.1600      0.26570652
       4314.1500      0.26594367
       4316.1400      0.26977648
       4318.1300      0.28303911
       4320.1200      0.28908039
       4322.1100      0.27947578
       4324.1000      0.26484104
       4326.0900      0.26670416
       4328.0800      0.28047612
       4330.0700      0.27306746
       4332.0600      0.28145096
       4334.0500      0.27873224
       4336.0400      0.27489689
       4338.0300      0.27432540
       4340.0200      0.27445643
       4342.0100      0.28320659
       4344.0000      0.27700934
       4345.9900      0.26948189
       4347.9800      0.27407532
       4349.9700      0.27455873
       4351.9600      0.27872670
       4353.9500      0.28106806
       4355.9400      0.27011280
       4357.9300      0.27936544
       4359.9200      0.29632131
       4361.9100      0.29775974
       4363.9000      0.28622618
       4365.8901      0.29368831
       4367.8800      0.29724229
       4369.8700      0.30986025
       4371.8600      0.30271856
       4373.8500      0.29705702
       4375.8400      0.30957168
       4377.8300      0.29606482
       4379.8200      0.29731607
       4381.8100      0.28583785
       4383.8000      0.27857245
       4385.7900      0.30583675
       4387.7800      0.28953960
       4389.7700      0.28792697
       4391.7600      0.28263613
       4393.7500      0.27336499
       4395.7400      0.28194681
       4397.7300      0.29044545
       4399.7200      0.28848276
       4401.7100      0.25742833
       4403.7000      0.25105785
       4405.6900      0.26024245
       4407.6800      0.26263032
       4409.6700      0.25428168
       4411.6600      0.25222854
       4413.6500      0.25326857
       4415.6400      0.25656381
       4417.6300      0.27264910
       4419.6200      0.26784482
       4421.6100      0.25777276
       4423.6000      0.24799844
       4425.5900      0.23882438
       4427.5800      0.24307512
       4429.5700      0.24801830
       4431.5600      0.25625177
       4433.5500      0.25716222
       4435.5400      0.24104292
       4437.5300      0.24748719
       4439.5200      0.25100252
       4441.5100      0.25490677
       4443.5000      0.26798233
       4445.4900      0.27446149
       4447.4800      0.26282763
       4449.4700      0.26276818
       4451.4600      0.26636130
       4453.4500      0.26231216
       4455.4400      0.26776464
       4457.4300      0.27593097
       4459.4200      0.27848776
       4461.4100      0.30819091
       4463.4000      0.32018666
       4465.3900      0.31423887
       4467.3800      0.30192059
       4469.3700      0.29762762
       4471.3600      0.30981810
       4473.3500      0.30228685
       4475.3400      0.32063724
       4477.3300      0.34810460
       4479.3200      0.34241555
       4481.3100      0.32994473
       4483.3000      0.34801495
       4485.2900      0.35366755
       4487.2800      0.36576466
       4489.2700      0.37055803
       4491.2600      0.36850464
       4493.2500      0.36966343
       4495.2400      0.39517295
       4497.2300      0.40057399
       4499.2200      0.40490677
       4501.2100      0.42471916
       4503.2000      0.42637333
       4505.1900      0.42720969
       4507.1800      0.42736554
       4509.1700      0.45161528
       4511.1600      0.46412506
       4513.1500      0.44903611
       4515.1400      0.47002516
       4517.1300      0.48782837
       4519.1200      0.49897364
       4521.1100      0.49721172
       4523.1000      0.51243308
       4525.0900      0.52026578
       4527.0800      0.52313111
       4529.0700      0.54401826
       4531.0600      0.55600686
       4533.0500      0.54781964
       4535.0400      0.56355174
       4537.0300      0.56848672
       4539.0200      0.59691562
       4541.0100      0.60730680
       4543.0000      0.59463378
       4544.9900      0.60445613
       4546.9800      0.61572760
       4548.9700      0.62804335
       4550.9600      0.64110479
       4552.9500      0.63823285
       4554.9400      0.64336788
       4556.9300      0.66342367
       4558.9200      0.66514914
       4560.9100      0.67766171
       4562.9000      0.68003129
       4564.8900      0.68576385
       4566.8800      0.70027278
       4568.8700      0.72139496
       4570.8600      0.70834050
       4572.8500      0.72514754
       4574.8400      0.70009263
       4576.8300      0.72383066
       4578.8200      0.76075963
       4580.8100      0.76774997
       4582.8000      0.75012387
       4584.7900      0.80467674
       4586.7800      0.81614677
       4588.7700      0.80864225
       4590.7600      0.81724179
       4592.7500      0.83182170
       4594.7400      0.82758841
       4596.7300      0.83919720
       4598.7200      0.86112557
       4600.7100      0.88185076
       4602.7000      0.87547027
       4604.6900      0.87955230
       4606.6800      0.88392621
       4608.6700      0.86167786
       4610.6599      0.86057009
       4612.6500      0.86104513
       4614.6400      0.86617718
       4616.6300      0.86787436
       4618.6200      0.85884652
       4620.6100      0.87562579
       4622.6000      0.88656441
       4624.5900      0.88402710
       4626.5800      0.87379268
       4628.5700      0.87352621
       4630.5600      0.87612814
       4632.5500      0.86925000
       4634.5400      0.88335021
       4636.5300      0.89408820
       4638.5200      0.88745441
       4640.5100      0.88436801
       4642.5000      0.89221936
       4644.4900      0.88878900
       4646.4800      0.87700200
       4648.4700      0.87422550
       4650.4600      0.85773217
       4652.4500      0.84820208
       4654.4400      0.84661525
       4656.4300      0.83600401
       4658.4200      0.85333723
       4660.4100      0.84170750
       4662.4000      0.82405314
       4664.3900      0.82646152
       4666.3800      0.82218135
       4668.3700      0.81645675
       4670.3600      0.79308938
       4672.3500      0.78155269
       4674.3400      0.76200379
       4676.3300      0.75042741
       4678.3200      0.78366547
       4680.3100      0.77347893
       4682.3000      0.74778010
       4684.2900      0.72631554
       4686.2800      0.73227536
       4688.2700      0.72718346
       4690.2600      0.71243498
       4692.2500      0.72185224
       4694.2400      0.70900586
       4696.2300      0.71477857
       4698.2200      0.68944115
       4700.2100      0.66935994
       4702.2000      0.66203906
       4704.1900      0.65491734
       4706.1800      0.65302792
       4708.1700      0.62832397
       4710.1600      0.60752431
       4712.1500      0.59475418
       4714.1400      0.59381201
       4716.1300      0.60119791
       4718.1200      0.60774561
       4720.1100      0.58327799
       4722.1000      0.57427920
       4724.0900      0.57613795
       4726.0800      0.57386983
       4728.0700      0.57223166
       4730.0600      0.57193143
       4732.0500      0.56254694
       4734.0400      0.55598324
       4736.0300      0.56222301
       4738.0200      0.55639443
       4740.0100      0.55951072
       4742.0000      0.57147851
       4743.9900      0.56888191
       4745.9800      0.55900138
       4747.9700      0.54992048
       4749.9600      0.55231409
       4751.9500      0.55791086
       4753.9400      0.55320467
       4755.9300      0.55015043
       4757.9200      0.55055615
       4759.9100      0.55106040
       4761.9000      0.54214736
       4763.8900      0.52236279
       4765.8800      0.51159846
       4767.8700      0.51919224
       4769.8600      0.51598169
       4771.8500      0.50718155
       4773.8400      0.51217361
       4775.8300      0.51224332
       4777.8200      0.49644697
       4779.8100      0.49523822
       4781.8000      0.49525752
       4783.7900      0.48532352
       4785.7800      0.47533090
       4787.7700      0.46792545
       4789.7600      0.46385818
       4791.7500      0.45241568
       4793.7400      0.44700374
       4795.7300      0.44496899
       4797.7200      0.44425792
       4799.7100      0.44416972
       4801.7000      0.44025600
       4803.6900      0.43700021
       4805.6800      0.44059392
       4807.6700      0.43569455
       4809.6600      0.43858255
       4811.6500      0.43888013
       4813.6400      0.43425159
       4815.6300      0.43420852
       4817.6200      0.43849014
       4819.6100      0.44095474
       4821.6000      0.44175991
       4823.5900      0.45434495
       4825.5800      0.46749645
       4827.5700      0.46489371
       4829.5600      0.46026977
       4831.5500      0.46874815
