Units are: observed wavelength (Ang), observed flux (10^-15 erg/s/cm^2/Ang)
       3474.0000      0.25010370
       3475.4700      0.16798390
       3476.9400    -0.046958840
       3478.4100     0.064163950
       3479.8800     0.077674800
       3481.3500       1.3569670
       3482.8200       2.6180940
       3484.2900    -0.087661260
       3485.7600    -0.096082680
       3487.2300     0.031043560
       3488.7000      0.21293760
       3490.1700      0.16215920
       3491.6400     0.072116460
       3493.1100     -0.13793550
       3494.5800    -0.086432010
       3496.0500     0.073065750
       3497.5200      0.16706540
       3498.9900     0.083264340
       3500.4600     -0.14970590
       3501.9300     -0.13921500
       3503.4000     0.030074670
       3504.8700     0.060064840
       3506.3400     0.025775200
       3507.8100     0.068523330
       3509.2800     0.011456210
       3510.7500      0.10168990
       3512.2200     0.062870540
       3513.6900      0.23518910
       3515.1600      0.93307610
       3516.6300      0.57618520
       3518.1000      0.48050650
       3519.5700      0.32994340
       3521.0400     0.080434780
       3522.5100      0.17837600
       3523.9800      0.31522200
       3525.4500       1.0209250
       3526.9200      0.44689310
       3528.3900      0.54401640
       3529.8600      0.57423270
       3531.3300       1.4924370
       3532.8000      0.43541310
       3534.2700    -0.019747890
       3535.7400      0.17224960
       3537.2100      0.13560510
       3538.6800      0.96045050
       3540.1500       1.3245500
       3541.6200      0.26280130
       3543.0900      0.15265770
       3544.5600      0.37276640
       3546.0300      0.76951870
       3547.5000      0.10942640
       3548.9700      0.55622760
       3550.4400       1.7287610
       3551.9100      0.30633460
       3553.3800      0.12882220
       3554.8500  -0.00066665900
       3556.3200      0.39084520
       3557.7900      0.70744790
       3559.2600     -0.41163590
       3560.7300      0.13684380
       3562.2000      0.29340450
       3563.6700     0.035790140
       3565.1400     -0.20894430
       3566.6100      0.47277220
       3568.0800      0.65681950
       3569.5500     -0.12667620
       3571.0200     0.048574540
       3572.4900      0.18938780
       3573.9600      0.48514830
       3575.4300      0.83809240
       3576.9000      0.44150090
       3578.3700     0.056781010
       3579.8400      0.24413400
       3581.3100      0.38206530
       3582.7800     0.084575330
       3584.2500    -0.027187990
       3585.7200     0.039755440
       3587.1900     0.049701000
       3588.6600      0.10342720
       3590.1300      0.64772540
       3591.6000      0.37832910
       3593.0700    -0.016986820
       3594.5400      0.44787120
       3596.0100      0.33696240
       3597.4800    -0.033829820
       3598.9500    -0.069792790
       3600.4200     0.045659430
       3601.8900    0.0063824560
       3603.3600    -0.074961870
       3604.8300      0.12272080
       3606.3000      0.56335200
       3607.7700     0.081100610
       3609.2400      0.40481140
       3610.7100      0.90020350
       3612.1800      0.25361800
       3613.6500     0.084955290
       3615.1200     0.086842010
       3616.5900     0.022170000
       3618.0600    -0.062634590
       3619.5300     -0.11279410
       3621.0000     0.046267350
       3622.4700      0.16729190
       3623.9400      0.46829910
       3625.4100     0.076375480
       3626.8800      0.20048380
       3628.3500      0.86255460
       3629.8200      0.27069200
       3631.2900     0.088716120
       3632.7600     0.025630110
       3634.2300   -0.0051408360
       3635.7000      0.26134010
       3637.1700      0.22928540
       3638.6400     0.038973580
       3640.1100      0.20162810
       3641.5800      0.14160530
       3643.0500     0.046535740
       3644.5200    -0.088307690
       3645.9900     -0.16207090
       3647.4600     -0.14262060
       3648.9300     -0.25128650
       3650.4000     0.062903110
       3651.8700     0.044220300
       3653.3400     0.055796650
       3654.8100      0.11512680
       3656.2800     0.080988740
       3657.7500     0.044526090
       3659.2200     0.028662860
       3660.6900     0.087296340
       3662.1600      0.11598270
       3663.6300     0.095846180
       3665.1000      0.13709030
       3666.5700      0.13111190
       3668.0400      0.10274540
       3669.5100      0.13543310
       3670.9800      0.15128770
       3672.4500    0.0015738750
       3673.9200     0.075795070
       3675.3900      0.12827250
       3676.8600    -0.017673720
       3678.3300     0.017128170
       3679.8000     0.088546630
       3681.2700     0.092852910
       3682.7400     0.083753900
       3684.2100     0.086526480
       3685.6800      0.29505500
       3687.1500      0.26261130
       3688.6200     0.020873900
       3690.0900     0.018813170
       3691.5600     0.026287650
       3693.0300     0.060176600
       3694.5000      0.14652550
       3695.9700      0.13344770
       3697.4400      0.14665180
       3698.9100     0.077038840
       3700.3800    -0.022649000
       3701.8500   -0.0088807220
       3703.3200     0.057751270
       3704.7900     0.064894690
       3706.2600   -0.0091257340
       3707.7300      0.12217180
       3709.2000     0.043858150
       3710.6700     0.094014870
       3712.1400      0.25019260
       3713.6100     0.083341650
       3715.0800     0.098686840
       3716.5500      0.12140070
       3718.0200      0.13554270
       3719.4900      0.11563490
       3720.9600     0.068399610
       3722.4300    0.0074338930
       3723.9000     0.089052390
       3725.3700      0.12119460
       3726.8400      0.12003770
       3728.3100      0.18937730
       3729.7800      0.31262870
       3731.2500      0.31757110
       3732.7200    0.0075576240
       3734.1900      0.11314340
       3735.6600      0.20718160
       3737.1300      0.18607200
       3738.6000      0.20433540
       3740.0700     0.099840440
       3741.5400      0.18880650
       3743.0100      0.23626170
       3744.4800      0.30591010
       3745.9500      0.24164730
       3747.4200      0.24810830
       3748.8900     0.087982650
       3750.3600    -0.070369380
       3751.8300      0.12442920
       3753.3000      0.18318730
       3754.7700      0.46050570
       3756.2400      0.45499640
       3757.7100      0.16483290
       3759.1800      0.51424210
       3760.6500      0.36476030
       3762.1200    -0.026503570
       3763.5900      0.15945370
       3765.0600      0.19027090
       3766.5300      0.15916490
       3768.0000      0.19966720
       3769.4700      0.15224680
       3770.9400      0.13696130
       3772.4100      0.93937990
       3773.8800      0.54694490
       3775.3500    -0.035969160
       3776.8200     0.072808380
       3778.2901     0.081907530
       3779.7600      0.12362940
       3781.2300     0.083566560
       3782.7000      0.11826950
       3784.1700     0.018884480
       3785.6400     0.053435490
       3787.1100     0.094580280
       3788.5800      0.12905240
       3790.0500      0.13131480
       3791.5200     0.088213230
       3792.9900      0.18839280
       3794.4600      0.16692530
       3795.9300      0.10817990
       3797.4000     0.080611120
       3798.8700     0.059888360
       3800.3400      0.24495730
       3801.8100     0.077328720
       3803.2800     0.042329530
       3804.7500     0.013593020
       3806.2200     0.065299730
       3807.6900     0.034800890
       3809.1600      0.18400010
       3810.6300      0.16677150
       3812.1000      0.13911480
       3813.5700      0.11882880
       3815.0400      0.13307850
       3816.5100     0.065148140
       3817.9800     0.059597050
       3819.4500      0.12422040
       3820.9200      0.17358490
       3822.3900      0.12993660
       3823.8600     0.084015530
       3825.3300      0.10517330
       3826.8000      0.53905930
       3828.2700      0.27172900
       3829.7400     0.041942120
       3831.2100    -0.041213810
       3832.6800     0.016800110
       3834.1500      0.15151980
       3835.6200     0.019808310
       3837.0900     0.011305640
       3838.5600      0.16155630
       3840.0300      0.17504330
       3841.5000    0.0073017920
       3842.9700     0.078120250
       3844.4400     0.054939690
       3845.9100      0.11798570
       3847.3800     0.038865440
       3848.8500    -0.059631230
       3850.3200     0.087326870
       3851.7900      0.31960640
       3853.2600      0.30576620
       3854.7300     0.017446390
       3856.2000      0.12225720
       3857.6700      0.17416690
       3859.1400      0.17311570
       3860.6100      0.21994060
       3862.0800     0.080733130
       3863.5500     0.070582910
       3865.0200      0.30961450
       3866.4900      0.23990000
       3867.9600     0.014291580
       3869.4300     0.053470790
       3870.9000      0.13328790
       3872.3700      0.29848350
       3873.8400      0.27395120
       3875.3100      0.20983300
       3876.7800      0.15994870
       3878.2500      0.17330750
       3879.7200      0.12282950
       3881.1900     0.091047960
       3882.6600      0.27499290
       3884.1300      0.27576850
       3885.6000      0.11092230
       3887.0700      0.10584780
       3888.5400      0.28467290
       3890.0100      0.16145140
       3891.4800      0.16772860
       3892.9500      0.22111440
       3894.4200      0.31430060
       3895.8900      0.30270760
       3897.3600     0.096711010
       3898.8300      0.14245470
       3900.3000     0.085871800
       3901.7700      0.13532840
       3903.2400      0.20826560
       3904.7100      0.16494630
       3906.1800      0.12180490
       3907.6500      0.44063590
       3909.1200      0.16902610
       3910.5900      0.14886060
       3912.0600      0.43664040
       3913.5300      0.17471020
       3915.0000     0.094106700
       3916.4700      0.33168710
       3917.9400      0.23531850
       3919.4100      0.15988740
       3920.8800      0.43195360
       3922.3500      0.35392080
       3923.8200      0.21056130
       3925.2900      0.26385530
       3926.7600      0.63188560
       3928.2300      0.24134250
       3929.7000      0.19563190
       3931.1700      0.28049120
       3932.6400      0.25760750
       3934.1100      0.18996680
       3935.5800      0.21515690
       3937.0500      0.23562050
       3938.5200      0.29029180
       3939.9900      0.24976130
       3941.4600      0.32848320
       3942.9300      0.45190950
       3944.4000      0.22950720
       3945.8700      0.30503350
       3947.3400      0.36434080
       3948.8100      0.21222730
       3950.2800      0.38388480
       3951.7500      0.40116600
       3953.2200      0.34363580
       3954.6900      0.32588510
       3956.1600      0.25455060
       3957.6300      0.19310680
       3959.1000      0.23907280
       3960.5700      0.25454830
       3962.0400      0.29394340
       3963.5100      0.32664070
       3964.9800      0.41785860
       3966.4500      0.33802220
       3967.9200      0.31385560
       3969.3900      0.46883380
       3970.8600      0.47740910
       3972.3300      0.31174930
       3973.8000      0.27305270
       3975.2700      0.37715750
       3976.7400      0.34035650
       3978.2100      0.43644720
       3979.6800      0.45373380
       3981.1500      0.36019420
       3982.6200      0.29627610
       3984.0900      0.23652600
       3985.5600      0.22791060
       3987.0300      0.33846210
       3988.5000      0.33480910
       3989.9700      0.17794390
       3991.4400      0.20900080
       3992.9100      0.26809880
       3994.3800      0.26708240
       3995.8500      0.23799970
       3997.3200      0.55150440
       3998.7900      0.50249260
       4000.2600      0.29144970
       4001.7300      0.26310050
       4003.2000      0.27731510
       4004.6700      0.21339030
       4006.1400      0.25155690
       4007.6100      0.27890260
       4009.0800      0.30323700
       4010.5500      0.45774830
       4012.0200      0.48197520
       4013.4900      0.33957400
       4014.9600      0.28998740
       4016.4300      0.42506540
       4017.9000      0.34578520
       4019.3700      0.37082680
       4020.8400      0.39731690
       4022.3100      0.30492320
       4023.7800      0.30775050
       4025.2500      0.24807040
       4026.7200      0.24265440
       4028.1900      0.23098960
       4029.6600      0.23704530
       4031.1300      0.36743760
       4032.6000      0.25332950
       4034.0700      0.30922000
       4035.5400      0.46590440
       4037.0100      0.37855260
       4038.4800      0.31619100
       4039.9500      0.36580120
       4041.4200      0.46045010
       4042.8900      0.50862780
       4044.3600      0.45539360
       4045.8300      0.26130520
       4047.3000      0.31462200
       4048.7700      0.24230280
       4050.2400      0.27811210
       4051.7100      0.25568590
       4053.1800      0.40224960
       4054.6500      0.51082370
       4056.1200      0.61740100
       4057.5900      0.48399130
       4059.0600      0.40312530
       4060.5300      0.51288030
       4062.0000      0.47312160
       4063.4700      0.33050530
       4064.9400      0.27540920
       4066.4100      0.29269250
       4067.8800      0.40675600
       4069.3500      0.40583130
       4070.8200      0.37805680
       4072.2900      0.27006660
       4073.7600      0.28980620
       4075.2300      0.34870670
       4076.7000      0.26509420
       4078.1700      0.26811200
       4079.6400      0.33799980
       4081.1100      0.33851020
       4082.5800      0.38003680
       4084.0500      0.31762200
       4085.5200      0.26168120
       4086.9900      0.22194390
       4088.4600      0.33198380
       4089.9300      0.36930570
       4091.4001      0.31550090
       4092.8700      0.36392980
       4094.3400      0.23107200
       4095.8100      0.31684690
       4097.2800      0.27127220
       4098.7500      0.18271210
       4100.2200      0.29377370
       4101.6900      0.32951270
       4103.1600      0.27151060
       4104.6300      0.26640780
       4106.1000      0.24075420
       4107.5700      0.32093070
       4109.0400      0.31630420
       4110.5100      0.22242610
       4111.9800      0.22841690
       4113.4500      0.19445230
       4114.9200      0.18390970
       4116.3900      0.20530810
       4117.8600      0.29091550
       4119.3300      0.26185560
       4120.8000      0.26590690
       4122.2700      0.24299000
       4123.7400      0.21869170
       4125.2100      0.27189390
       4126.6800      0.29306910
       4128.1500      0.20562620
       4129.6200      0.17044880
       4131.0900      0.18683320
       4132.5600      0.20681560
       4134.0300      0.31579770
       4135.5000      0.35817710
       4136.9700      0.29547690
       4138.4400      0.26273520
       4139.9100      0.20546070
       4141.3800      0.28009670
       4142.8500      0.23949360
       4144.3200      0.22646030
       4145.7900      0.25033520
       4147.2600      0.26050070
       4148.7300      0.30413990
       4150.2000      0.31024610
       4151.6700      0.34259970
       4153.1400      0.30851340
       4154.6100      0.25997610
       4156.0800      0.28061400
       4157.5500      0.36709150
       4159.0200      0.25508520
       4160.4900      0.19133280
       4161.9600      0.24051820
       4163.4300      0.29133230
       4164.9000      0.32732820
       4166.3700      0.26432310
       4167.8400      0.22204680
       4169.3100      0.24521150
       4170.7800      0.20719770
       4172.2500      0.19661280
       4173.7200      0.19037520
       4175.1900      0.26134720
       4176.6600      0.25271770
       4178.1300      0.28742920
       4179.6000      0.31680070
       4181.0700      0.29872620
       4182.5400      0.25191560
       4184.0100      0.22366620
       4185.4800      0.23327480
       4186.9500      0.19370060
       4188.4200      0.17931530
       4189.8900      0.23036230
       4191.3600      0.25094350
       4192.8300      0.22471590
       4194.3000      0.15608360
       4195.7700      0.20742720
       4197.2400      0.21341830
       4198.7100      0.16818820
       4200.1800      0.14998480
       4201.6500      0.26360610
       4203.1200      0.21912030
       4204.5900      0.15180160
       4206.0600      0.11843050
       4207.5300      0.21133000
       4209.0000      0.19476170
       4210.4700      0.21158730
       4211.9400      0.22264060
       4213.4100      0.20456390
       4214.8800      0.23770470
       4216.3500      0.22438830
       4217.8200      0.18968830
       4219.2900      0.20046710
       4220.7600      0.21855780
       4222.2300      0.21056320
       4223.7000      0.21318420
       4225.1700      0.24443160
       4226.6400      0.25206390
       4228.1100      0.23587020
       4229.5800      0.22771430
       4231.0500      0.19691900
       4232.5200      0.19739000
       4233.9900      0.25214560
       4235.4600      0.22482300
       4236.9300      0.22839740
       4238.4000      0.24373260
       4239.8700      0.21809830
       4241.3400      0.25850760
       4242.8100      0.25340350
       4244.2800      0.21467510
       4245.7500      0.24678550
       4247.2200      0.26985180
       4248.6900      0.26211610
       4250.1600      0.23390800
       4251.6300      0.22341050
       4253.1000      0.22027250
       4254.5700      0.21895650
       4256.0400      0.23534040
       4257.5100      0.26359900
       4258.9800      0.24838370
       4260.4500      0.28953260
       4261.9200      0.28486000
       4263.3900      0.23482610
       4264.8600      0.23461620
       4266.3300      0.23716630
       4267.8000      0.23036590
       4269.2700      0.26015650
       4270.7400      0.27350840
       4272.2100      0.22118190
       4273.6800      0.22033020
       4275.1500      0.25063260
       4276.6200      0.25998630
       4278.0900      0.28464690
       4279.5600      0.23035860
       4281.0300      0.26801310
       4282.5000      0.28108570
       4283.9700      0.30091970
       4285.4400      0.29478680
       4286.9100      0.24818870
       4288.3800      0.23864290
       4289.8500      0.25559800
       4291.3200      0.28608650
       4292.7900      0.24365370
       4294.2600      0.21608720
       4295.7300      0.27099480
       4297.2000      0.27506790
       4298.6700      0.23580660
       4300.1400      0.23564930
       4301.6100      0.23635090
       4303.0800      0.26810340
       4304.5500      0.23719090
       4306.0200      0.23428060
       4307.4900      0.22559840
       4308.9600      0.22528780
       4310.4300      0.27032210
       4311.9000      0.28262460
       4313.3700      0.26486690
       4314.8400      0.24433640
       4316.3100      0.26779910
       4317.7800      0.27090380
       4319.2500      0.29315120
       4320.7200      0.26937640
       4322.1900      0.23043650
       4323.6600      0.26534310
       4325.1300      0.25879120
       4326.6000      0.24525170
       4328.0700      0.27465380
       4329.5400      0.26498740
       4331.0100      0.23867320
       4332.4800      0.21323200
       4333.9500      0.21118790
       4335.4200      0.24372340
       4336.8900      0.27289080
       4338.3600      0.26958830
       4339.8300      0.24786720
       4341.3000      0.26329400
       4342.7700      0.23880640
       4344.2400      0.25054400
       4345.7100      0.26558000
       4347.1800      0.24091470
       4348.6500      0.23810000
       4350.1200      0.25886750
       4351.5900      0.26090390
       4353.0600      0.28698440
       4354.5300      0.24415570
       4356.0000      0.32168510
       4357.4700      0.32293920
       4358.9400      0.31932340
