Units are: observed wavelength (Ang), observed flux (10^-15 erg/s/cm^2/Ang)
       3700.0000       5.1962080
       3701.1999       5.2079360
       3702.3998       5.2684200
       3703.5997       5.1478600
       3704.7996       4.9100440
       3705.9995       4.9735780
       3707.1995       4.9804740
       3708.3994       5.0485520
       3709.5993       5.0747500
       3710.7992       5.3550540
       3711.9991       5.3574860
       3713.1990       5.2239100
       3714.3989       5.1662060
       3715.5989       5.2968300
       3716.7988       5.2727900
       3717.9987       5.3118540
       3719.1986       4.7956880
       3720.3985       4.7808580
       3721.5984       4.7821740
       3722.7984       4.8600460
       3723.9983       5.0319720
       3725.1982       5.2098960
       3726.3981       5.0831500
       3727.5980       4.8014020
       3728.7979       4.8351900
       3729.9978       4.9998000
       3731.1977       4.9287140
       3732.3976       4.7214880
       3733.5975       4.6304760
       3734.7974       4.7493000
       3735.9973       4.5111180
       3737.1972       4.5199580
       3738.3972       4.7801320
       3739.5971       4.5988400
       3740.7970       4.6622800
       3741.9969       4.4894640
       3743.1968       4.3794260
       3744.3968       4.4081280
       3745.5967       4.3168340
       3746.7966       4.2189560
       3747.9965       4.0512560
       3749.1964       3.8736540
       3750.3963       3.8491100
       3751.5962       3.8044120
       3752.7961       3.9079340
       3753.9961       3.8281540
       3755.1960       3.7483180
       3756.3959       3.5136860
       3757.5958       3.3710580
       3758.7957       3.4302860
       3759.9956       3.3254320
       3761.1955       3.1043740
       3762.3954       2.9523880
       3763.5953       2.9733840
       3764.7952       2.9410280
       3765.9951       2.7689780
       3767.1950       2.5691720
       3768.3949       2.5652580
       3769.5949       2.5702700
       3770.7948       2.5423860
       3771.9947       2.4432020
       3773.1947       2.4842540
       3774.3946       2.4388960
       3775.5945       2.3251920
       3776.7944       2.3467280
       3777.9943       2.3333020
       3779.1942       2.2505720
       3780.3941       2.2224200
       3781.5940       2.2867140
       3782.7939       2.3298080
       3783.9938       2.2519920
       3785.1938       2.0876800
       3786.3937       2.0078480
       3787.5936       2.0860420
       3788.7935       1.9866796
       3789.9934       1.8883724
       3791.1933       1.9346622
       3792.3932       1.8793322
       3793.5931       1.8577614
       3794.7930       1.8573336
       3795.9929       1.8011026
       3797.1928       1.6703314
       3798.3927       1.6754886
       3799.5926       1.7860998
       3800.7926       1.8770308
       3801.9926       1.8044502
       3803.1925       1.8847988
       3804.3924       1.8425384
       3805.5923       1.7706950
       3806.7922       1.7453902
       3807.9921       1.7837316
       3809.1920       1.8546022
       3810.3919       1.8279306
       3811.5918       1.8031134
       3812.7917       1.8501466
       3813.9916       1.8310408
       3815.1915       1.8552416
       3816.3915       1.8090800
       3817.5914       1.7927276
       3818.7913       1.7534684
       3819.9912       1.8505764
       3821.1911       1.8670594
       3822.3910       1.8497128
       3823.5909       1.9285878
       3824.7908       1.9865758
       3825.9907       2.0404260
       3827.1906       1.9232398
       3828.3905       2.0389460
       3829.5904       2.0608280
       3830.7904       2.1950880
       3831.9904       2.1892800
       3833.1903       2.1808780
       3834.3902       2.3314760
       3835.5901       2.3449600
       3836.7900       2.3083700
       3837.9899       2.4075020
       3839.1898       2.4081220
       3840.3897       2.4882720
       3841.5896       2.5779480
       3842.7895       2.5334920
       3843.9894       2.5949700
       3845.1893       2.6799700
       3846.3893       2.8034200
       3847.5892       2.6558500
       3848.7891       2.8029000
       3849.9890       2.8338840
       3851.1889       2.8929920
       3852.3888       3.0009540
       3853.5887       2.9037460
       3854.7886       3.1109180
       3855.9885       3.0182940
       3857.1884       3.1078160
       3858.3883       3.1066560
       3859.5883       3.1323600
       3860.7882       3.2248040
       3861.9882       3.2703100
       3863.1881       3.2995200
       3864.3880       3.4267000
       3865.5879       3.4744400
       3866.7878       3.4298940
       3867.9877       3.5278800
       3869.1876       3.5285720
       3870.3875       3.5541360
       3871.5874       3.6195440
       3872.7873       3.6304400
       3873.9872       3.6419580
       3875.1871       3.6784640
       3876.3870       3.8925440
       3877.5870       3.7101100
       3878.7869       3.8218000
       3879.9868       3.8014880
       3881.1867       3.8281300
       3882.3866       3.9700220
       3883.5865       4.0265140
       3884.7864       4.0223280
       3885.9863       4.0746480
       3887.1862       4.1461720
       3888.3862       4.2977820
       3889.5861       4.1746740
       3890.7860       4.2764740
       3891.9859       4.4286740
       3893.1859       4.4032980
       3894.3858       4.4577580
       3895.5857       4.5053380
       3896.7856       4.5090620
       3897.9855       4.4250540
       3899.1854       4.5803500
       3900.3853       4.4755160
       3901.5852       4.6107020
       3902.7851       4.7242460
       3903.9850       4.6116680
       3905.1849       4.7574440
       3906.3848       4.7374720
       3907.5847       4.7337460
       3908.7847       4.9056480
       3909.9846       4.9381140
       3911.1845       4.9587960
       3912.3844       5.0236740
       3913.5843       4.9662640
       3914.7842       5.0936620
       3915.9841       5.0751480
       3917.1841       5.1458840
       3918.3840       5.1593600
       3919.5839       5.0739760
       3920.7838       5.0728940
       3921.9837       5.1171060
       3923.1836       5.2787400
       3924.3836       5.2749340
       3925.5835       5.1648040
       3926.7834       5.2647680
       3927.9833       5.2128360
       3929.1832       5.2342020
       3930.3831       5.2300940
       3931.5830       5.0869820
       3932.7829       5.0008380
       3933.9828       5.0046280
       3935.1827       5.1121580
       3936.3826       5.3473360
       3937.5825       5.4768180
       3938.7824       5.4549820
       3939.9824       5.6294060
       3941.1823       5.6762700
       3942.3822       5.7487460
       3943.5821       5.7285340
       3944.7820       5.7334960
       3945.9820       5.7845000
       3947.1819       5.8179760
       3948.3818       5.7137360
       3949.5817       5.7035540
       3950.7816       5.5735020
       3951.9815       5.7197440
       3953.1814       5.7440700
       3954.3813       5.8449420
       3955.5813       6.0349320
       3956.7812       6.1040320
       3957.9811       6.1110140
       3959.1810       5.9277400
       3960.3809       5.9676940
       3961.5808       6.0393540
       3962.7807       6.0939940
       3963.9806       5.9885340
       3965.1805       6.0145260
       3966.3804       6.0043600
       3967.5803       5.6960100
       3968.7802       5.8913300
       3969.9801       6.1322800
       3971.1801       6.2075280
       3972.3800       6.1141900
       3973.5799       6.1685540
       3974.7799       6.0138860
       3975.9798       6.0062380
       3977.1797       5.9561440
       3978.3796       5.9488920
       3979.5795       6.0087320
       3980.7794       6.0267820
       3981.9793       6.0130640
       3983.1792       5.9221940
       3984.3791       5.9626180
       3985.5790       5.8589540
       3986.7790       5.7453100
       3987.9789       5.7890200
       3989.1788       5.8805500
       3990.3787       6.0486640
       3991.5786       5.9832680
       3992.7785       5.9578700
       3993.9784       5.7880080
       3995.1783       5.7178200
       3996.3782       5.8418780
       3997.5781       5.8343340
       3998.7780       5.7144780
       3999.9779       5.7034560
       4001.1779       5.6559040
       4002.3778       5.6778020
       4003.5778       5.6221580
       4004.7777       5.5551080
       4005.9776       5.5299800
       4007.1775       5.5192380
       4008.3774       5.4850040
       4009.5773       5.3946220
       4010.7772       5.2943400
       4011.9771       5.2629280
       4013.1770       5.2888280
       4014.3769       5.3332420
       4015.5768       5.2819960
       4016.7768       5.3543160
       4017.9767       5.2262440
       4019.1766       5.1172440
       4020.3765       5.1283460
       4021.5764       4.9667800
       4022.7763       4.9698240
       4023.9762       4.9707120
       4025.1761       4.8878900
       4026.3760       4.8709240
       4027.5759       4.9687920
       4028.7758       4.9829860
       4029.9757       4.8560560
       4031.1756       4.8576360
       4032.3757       4.7571760
       4033.5756       4.7662360
       4034.7755       4.7244940
       4035.9754       4.7649740
       4037.1753       4.8269400
       4038.3752       4.8225760
       4039.5751       4.7896720
       4040.7750       4.7765180
       4041.9749       4.6990440
       4043.1748       4.6456220
       4044.3747       4.7248920
       4045.5746       4.7352380
       4046.7745       4.6628400
       4047.9745       4.6450020
       4049.1744       4.6217620
       4050.3743       4.6904240
       4051.5742       4.6017340
       4052.7741       4.5365800
       4053.9740       4.7230120
       4055.1739       4.6086280
       4056.3738       4.5660060
       4057.5737       4.6890620
       4058.7736       4.6053320
       4059.9735       4.6022060
       4061.1735       4.5475620
       4062.3734       4.5782040
       4063.5734       4.6045000
       4064.7733       4.5401920
       4065.9732       4.6530800
       4067.1731       4.6216460
       4068.3730       4.5397480
       4069.5729       4.5619640
       4070.7728       4.5212860
       4071.9727       4.3720520
       4073.1726       4.4166200
       4074.3725       4.4929480
       4075.5724       4.5886200
       4076.7723       4.5048040
       4077.9722       4.3354800
       4079.1722       4.3077760
       4080.3721       4.2455960
       4081.5720       4.3533400
       4082.7719       4.2710380
       4083.9718       4.2714860
       4085.1717       4.2491360
       4086.3716       4.2589380
       4087.5715       4.3634720
       4088.7714       4.2391600
       4089.9714       4.2596760
       4091.1713       4.1361660
       4092.3712       4.1773540
       4093.5711       4.0893760
       4094.7711       4.0721800
       4095.9710       4.1093720
       4097.1709       4.0775240
       4098.3708       4.0401020
       4099.5707       3.9716000
       4100.7706       3.9691640
       4101.9705       4.0059880
       4103.1704       4.0019760
       4104.3703       3.9697960
       4105.5702       3.9665580
       4106.7701       3.9680540
       4107.9700       3.9349620
       4109.1699       3.8959120
       4110.3699       3.9768140
       4111.5698       4.0028660
       4112.7697       3.8552820
       4113.9696       3.9103320
       4115.1695       3.9272540
       4116.3694       3.8658820
       4117.5693       3.9555380
       4118.7693       3.9392700
       4119.9692       3.7972440
       4121.1691       3.9576440
       4122.3690       3.8686800
       4123.5689       3.7336660
       4124.7688       3.7429560
       4125.9688       3.7468180
       4127.1687       3.6804820
       4128.3686       3.6924880
       4129.5685       3.6597260
       4130.7684       3.5746040
       4131.9683       3.6936380
       4133.1682       3.5976200
       4134.3681       3.5684260
       4135.5680       3.6030600
       4136.7679       3.5098800
       4137.9678       3.4856440
       4139.1677       3.4545120
       4140.3677       3.5134160
       4141.5676       3.5237440
       4142.7675       3.5091680
       4143.9674       3.4620380
       4145.1673       3.4165020
       4146.3673       3.3902700
       4147.5672       3.4732380
       4148.7671       3.4144460
       4149.9670       3.4667520
       4151.1669       3.3766880
       4152.3668       3.3124400
       4153.5667       3.4000880
       4154.7666       3.3819520
       4155.9666       3.4123020
       4157.1665       3.3922300
       4158.3664       3.3766300
       4159.5663       3.3673640
       4160.7662       3.3938180
       4161.9661       3.3826740
       4163.1660       3.4190080
       4164.3659       3.2806800
       4165.5658       3.4073960
       4166.7657       3.4130240
       4167.9656       3.3545580
       4169.1655       3.4522500
       4170.3654       3.5169280
       4171.5654       3.5367560
       4172.7653       3.4756880
       4173.9652       3.4416980
       4175.1652       3.4990100
       4176.3651       3.5430600
       4177.5650       3.5702740
       4178.7649       3.5404120
       4179.9648       3.6126040
       4181.1647       3.6599860
       4182.3646       3.6351540
       4183.5645       3.6897680
       4184.7644       3.6754020
       4185.9643       3.7046980
       4187.1643       3.6692200
       4188.3642       3.6794320
       4189.5641       3.6427140
       4190.7640       3.6597980
       4191.9639       3.6599600
       4193.1638       3.7338120
       4194.3637       3.6161060
       4195.5636       3.7364760
       4196.7635       3.6469400
       4197.9634       3.7698320
       4199.1633       3.6035000
       4200.3632       3.6523440
       4201.5631       3.7046200
       4202.7631       3.7341360
       4203.9631       3.7534700
       4205.1630       3.7365420
       4206.3629       3.7793900
       4207.5628       3.7778820
       4208.7627       3.7835980
       4209.9626       3.7710060
       4211.1625       3.6775780
       4212.3624       3.7706980
       4213.5623       3.6923460
       4214.7622       3.6659560
       4215.9621       3.6934600
       4217.1620       3.7535940
       4218.3620       3.7524580
       4219.5619       3.7705240
       4220.7618       3.7734760
       4221.9617       3.7259720
       4223.1616       3.6603000
       4224.3615       3.6620140
       4225.5614       3.6607240
       4226.7613       3.6422440
       4227.9612       3.6579980
       4229.1611       3.6104880
       4230.3610       3.6766240
       4231.5609       3.7095660
       4232.7609       3.6373080
       4233.9609       3.6658540
       4235.1608       3.5651060
       4236.3607       3.5987340
       4237.5606       3.5699020
       4238.7605       3.6691860
       4239.9604       3.6528540
       4241.1603       3.6399380
       4242.3602       3.6240380
       4243.5601       3.6107880
       4244.7600       3.6704020
       4245.9599       3.5858760
       4247.1598       3.5803580
       4248.3597       3.6239360
       4249.5597       3.5677480
       4250.7596       3.5210640
       4251.9595       3.5515520
       4253.1594       3.6533100
       4254.3593       3.5943800
       4255.5592       3.6139200
       4256.7591       3.6426920
       4257.9590       3.6393720
       4259.1589       3.5303320
       4260.3588       3.5721920
       4261.5588       3.6547840
       4262.7587       3.6095640
       4263.9586       3.5727540
       4265.1586       3.6193320
       4266.3585       3.6487980
       4267.5584       3.6344940
       4268.7583       3.5830280
       4269.9582       3.6178320
       4271.1581       3.5587320
       4272.3580       3.5672480
       4273.5579       3.5640160
       4274.7578       3.5807420
       4275.9577       3.6610340
       4277.1576       3.6438160
       4278.3575       3.7033580
       4279.5574       3.6299560
       4280.7574       3.7090220
       4281.9573       3.7370620
       4283.1572       3.6743800
       4284.3571       3.6773500
       4285.5570       3.6860180
       4286.7569       3.7552540
       4287.9568       3.7419160
       4289.1567       3.6321740
       4290.3567       3.7260060
       4291.5566       3.8120800
       4292.7565       3.7990760
       4293.9564       3.7963120
       4295.1564       3.7681960
       4296.3563       3.7489320
       4297.5562       3.7057400
       4298.7561       3.7516820
       4299.9560       3.7050740
       4301.1559       3.7886720
       4302.3558       3.7608420
       4303.5557       3.7888740
       4304.7556       3.7878900
       4305.9555       3.8163720
       4307.1554       3.8142980
       4308.3553       3.8535120
       4309.5552       3.8771940
       4310.7552       3.8214460
       4311.9551       3.7629660
       4313.1550       3.8095860
       4314.3549       3.8763420
       4315.5548       3.8616440
       4316.7547       3.9125680
       4317.9546       3.8803360
       4319.1546       3.8372520
       4320.3545       3.9030820
       4321.5544       3.8628860
       4322.7543       3.8117040
       4323.9542       3.7497820
       4325.1541       3.7190600
       4326.3541       3.7190300
       4327.5540       3.7141060
       4328.7539       3.7508600
       4329.9538       3.7583700
       4331.1537       3.8553780
       4332.3536       3.7269380
       4333.5535       3.7453200
       4334.7534       3.6863160
       4335.9533       3.7089040
       4337.1532       3.6058480
       4338.3531       3.5971220
       4339.5530       3.4467920
       4340.7529       3.4753960
       4341.9529       3.5233100
       4343.1528       3.4824000
       4344.3527       3.4767340
       4345.5526       3.4773420
       4346.7525       3.4659080
       4347.9525       3.3481420
       4349.1524       3.3901000
       4350.3523       3.3820180
       4351.5522       3.2815380
       4352.7521       3.2328420
       4353.9520       3.2384060
       4355.1519       3.2637600
       4356.3518       3.3080540
       4357.5518       3.2741880
       4358.7517       3.2699580
       4359.9516       3.2101460
       4361.1515       3.2072260
       4362.3514       3.1799000
       4363.5513       3.1407520
       4364.7512       3.0870280
       4365.9511       3.0665840
       4367.1510       3.0476420
       4368.3509       3.0068680
       4369.5508       3.0361300
       4370.7507       3.0328860
       4371.9506       3.0229960
       4373.1506       2.9875200
       4374.3505       2.9939000
       4375.5504       2.9673240
       4376.7504       2.9171860
       4377.9503       2.9231700
       4379.1502       2.9219560
       4380.3501       2.8897120
       4381.5500       2.8490480
       4382.7499       2.8583720
       4383.9498       2.7713540
       4385.1497       2.8456900
       4386.3496       2.7554980
       4387.5495       2.7780560
       4388.7495       2.8071400
       4389.9494       2.7918760
       4391.1493       2.8228660
       4392.3492       2.7267360
       4393.5491       2.7259660
       4394.7490       2.7712860
       4395.9489       2.7890960
       4397.1488       2.7580780
       4398.3487       2.7488240
       4399.5486       2.7408180
       4400.7485       2.7992440
       4401.9484       2.8303700
       4403.1483       2.8485160
       4404.3483       2.7666360
       4405.5483       2.6938880
       4406.7482       2.7222420
       4407.9481       2.7739300
       4409.1480       2.7480520
       4410.3479       2.7727840
       4411.5478       2.7724320
       4412.7477       2.7570400
       4413.9476       2.7672440
       4415.1475       2.7428920
       4416.3474       2.7432840
       4417.5473       2.8343020
       4418.7472       2.8286840
       4419.9472       2.8440840
       4421.1471       2.8684860
       4422.3470       2.8783940
