Units are: observed wavelength (Ang), observed flux (10^-15 erg/s/cm^2/Ang)
       3600.0000      0.23603492
       3601.9498      0.23461473
       3603.8997      0.23855229
       3605.8496      0.23900757
       3607.7994      0.26369238
       3609.7493      0.27948089
       3611.6991      0.27334230
       3613.6490      0.23842471
       3615.5988      0.23502510
       3617.5488      0.25290804
       3619.4987      0.25724459
       3621.4485      0.27115751
       3623.3984      0.27097548
       3625.3482      0.26140552
       3627.2981      0.24344078
       3629.2479      0.23538597
       3631.1978      0.26974306
       3633.1476      0.25993829
       3635.0975      0.25183745
       3637.0474      0.25830503
       3638.9972      0.27115644
       3640.9471      0.26948236
       3642.8969      0.27334147
       3644.8468      0.25226560
       3646.7966      0.25222254
       3648.7465      0.26746135
       3650.6964      0.26007388
       3652.6462      0.26861702
       3654.5961      0.29250956
       3656.5459      0.29838443
       3658.4958      0.29471913
       3660.4456      0.27566045
       3662.3955      0.28081518
       3664.3454      0.31560116
       3666.2953      0.31713577
       3668.2452      0.30263954
       3670.1950      0.30035007
       3672.1449      0.31027336
       3674.0947      0.31830187
       3676.0446      0.32659383
       3677.9945      0.33299918
       3679.9443      0.33800214
       3681.8942      0.34190584
       3683.8440      0.34566427
       3685.7939      0.34956227
       3687.7437      0.37206195
       3689.6936      0.38547051
       3691.6435      0.39430142
       3693.5933      0.37725566
       3695.5432      0.35149651
       3697.4930      0.35373407
       3699.4429      0.36030691
       3701.3927      0.36796713
       3703.3426      0.38794566
       3705.2924      0.39898883
       3707.2423      0.40161349
       3709.1922      0.38670435
       3711.1420      0.37547503
       3713.0919      0.38220869
       3715.0417      0.37957741
       3716.9917      0.36408284
       3718.9415      0.37322202
       3720.8914      0.37661889
       3722.8413      0.37813328
       3724.7911      0.37969177
       3726.7410      0.36607996
       3728.6908      0.37680164
       3730.6407      0.38549004
       3732.5905      0.35572010
       3734.5404      0.33825532
       3736.4903      0.36256891
       3738.4401      0.36934624
       3740.3900      0.36331664
       3742.3398      0.37612877
       3744.2897      0.39360538
       3746.2395      0.37730258
       3748.1894      0.34299598
       3750.1393      0.34767590
       3752.0891      0.34266692
       3754.0390      0.32456274
       3755.9888      0.33111556
       3757.9387      0.32962444
       3759.8885      0.32202144
       3761.8384      0.32865122
       3763.7883      0.32997523
       3765.7382      0.31790948
       3767.6881      0.30321884
       3769.6379      0.29891940
       3771.5878      0.30901318
       3773.5376      0.29914127
       3775.4875      0.26958919
       3777.4374      0.28274899
       3779.3872      0.31736930
       3781.3371      0.28576198
       3783.2869      0.25431512
       3785.2368      0.27020750
       3787.1866      0.27871614
       3789.1365      0.25134447
       3791.0863      0.24002989
       3793.0362      0.25033122
       3794.9861      0.25301223
       3796.9359      0.24721136
       3798.8858      0.22519226
       3800.8356      0.20930815
       3802.7855      0.21936946
       3804.7353      0.22070933
       3806.6852      0.20410035
       3808.6351      0.18769989
       3810.5849      0.18796695
       3812.5348      0.18594639
       3814.4846      0.17761796
       3816.4346      0.18451958
       3818.3844      0.18404169
       3820.3343      0.18650421
       3822.2842      0.17513769
       3824.2340      0.16266344
       3826.1839      0.15855537
       3828.1337      0.16100729
       3830.0836      0.16622737
       3832.0334      0.17077108
       3833.9833      0.16799327
       3835.9332      0.18088421
       3837.8830      0.18661277
       3839.8329      0.17642665
       3841.7827      0.18389174
       3843.7326      0.19961808
       3845.6824      0.20342508
       3847.6323      0.19080559
       3849.5822      0.19357982
       3851.5320      0.22233096
       3853.4819      0.23292945
       3855.4317      0.25126920
       3857.3816      0.26702740
       3859.3314      0.26977308
       3861.2813      0.26892045
       3863.2312      0.28379193
       3865.1811      0.30810934
       3867.1310      0.30325852
       3869.0808      0.29923582
       3871.0307      0.32953422
       3872.9805      0.34999872
       3874.9304      0.36055237
       3876.8802      0.36830197
       3878.8301      0.37027922
       3880.7800      0.38485094
       3882.7298      0.40413153
       3884.6797      0.43324405
       3886.6295      0.45361081
       3888.5794      0.44561889
       3890.5292      0.45909525
       3892.4791      0.48725453
       3894.4290      0.50031493
       3896.3788      0.50491889
       3898.3287      0.52331601
       3900.2785      0.53363617
       3902.2284      0.53770929
       3904.1782      0.55773737
       3906.1281      0.56257469
       3908.0780      0.57758501
       3910.0278      0.57941629
       3911.9777      0.57453413
       3913.9275      0.60031385
       3915.8775      0.62832345
       3917.8273      0.65756921
       3919.7772      0.67154321
       3921.7271      0.66929953
       3923.6769      0.67643437
       3925.6268      0.69010381
       3927.5766      0.69520953
       3929.5265      0.70712501
       3931.4763      0.70684709
       3933.4262      0.69284813
       3935.3761      0.71639585
       3937.3259      0.74380105
       3939.2758      0.76237441
       3941.2256      0.77253497
       3943.1755      0.76592617
       3945.1253      0.77338209
       3947.0752      0.79289801
       3949.0251      0.79120085
       3950.9749      0.78861029
       3952.9248      0.78623449
       3954.8746      0.78310633
       3956.8245      0.80207349
       3958.7743      0.82810241
       3960.7242      0.85312673
       3962.6740      0.86246033
       3964.6240      0.84180205
       3966.5739      0.84453489
       3968.5237      0.86818553
       3970.4736      0.86760845
       3972.4234      0.86373645
       3974.3733      0.87785921
       3976.3231      0.89436417
       3978.2730      0.90119821
       3980.2229      0.88256225
       3982.1727      0.88883821
       3984.1226      0.87981417
       3986.0724      0.85421981
       3988.0223      0.84964897
       3989.9721      0.87216045
       3991.9220      0.86975481
       3993.8719      0.86545221
       3995.8217      0.87639933
       3997.7716      0.89332353
       3999.7214      0.88713017
       4001.6713      0.86391509
       4003.6211      0.86472017
       4005.5710      0.88571989
       4007.5209      0.87918665
       4009.4707      0.86819573
       4011.4206      0.87047577
       4013.3704      0.87113745
       4015.3204      0.87904093
       4017.2702      0.86964817
       4019.2201      0.85349581
       4021.1700      0.86905441
       4023.1198      0.84418773
       4025.0697      0.81703225
       4027.0195      0.82021161
       4028.9694      0.82693901
       4030.9192      0.84379997
       4032.8691      0.85189209
       4034.8190      0.84870921
       4036.7688      0.84392605
       4038.7187      0.83263533
       4040.6685      0.82743465
       4042.6184      0.83763869
       4044.5682      0.84569025
       4046.5181      0.85699653
       4048.4679      0.86311305
       4050.4178      0.84612417
       4052.3677      0.82195901
       4054.3175      0.81415329
       4056.2674      0.80803473
       4058.2172      0.80988989
       4060.1671      0.80464849
       4062.1169      0.79905245
       4064.0668      0.79147005
       4066.0168      0.79425117
       4067.9666      0.79434101
       4069.9165      0.77318181
       4071.8663      0.76130045
       4073.8162      0.74306881
       4075.7660      0.74116573
       4077.7159      0.74295669
       4079.6658      0.72853081
       4081.6156      0.70553189
       4083.5655      0.68407321
       4085.5153      0.69736277
       4087.4652      0.71161853
       4089.4150      0.70540621
       4091.3649      0.68580985
       4093.3148      0.68016169
       4095.2646      0.67461053
       4097.2145      0.67454005
       4099.1643      0.67733709
       4101.1142      0.65478201
       4103.0640      0.61775453
       4105.0139      0.61715801
       4106.9638      0.62369361
       4108.9136      0.61727249
       4110.8635      0.62107801
       4112.8133      0.59724413
       4114.7633      0.56137477
       4116.7131      0.57035633
       4118.6630      0.57897273
       4120.6129      0.57122413
       4122.5627      0.57982789
       4124.5126      0.56766853
       4126.4624      0.55185257
       4128.4123      0.54736053
       4130.3621      0.53696529
       4132.3120      0.52874949
       4134.2618      0.52005789
       4136.2117      0.50660541
       4138.1616      0.50754477
       4140.1114      0.51480285
       4142.0613      0.51336053
       4144.0111      0.50477105
       4145.9610      0.49100377
       4147.9108      0.46621805
       4149.8607      0.45445425
       4151.8106      0.45533077
       4153.7604      0.44235193
       4155.7103      0.42163401
       4157.6601      0.43487177
       4159.6100      0.43607585
       4161.5598      0.42193053
       4163.5097      0.41415597
       4165.4597      0.41346065
       4167.4095      0.40214881
       4169.3594      0.39215813
       4171.3092      0.39179287
       4173.2591      0.38923565
       4175.2089      0.38422289
       4177.1588      0.36707142
       4179.1087      0.35661007
       4181.0585      0.36030593
       4183.0084      0.37710467
       4184.9582      0.38683584
       4186.9081      0.38781052
       4188.8579      0.39894276
       4190.8078      0.40363281
       4192.7577      0.39178553
       4194.7075      0.38889051
       4196.6574      0.39227009
       4198.6072      0.38710063
       4200.5571      0.38705731
       4202.5069      0.39020429
       4204.4568      0.40368061
       4206.4066      0.41245733
       4208.3565      0.42209865
       4210.3064      0.43585849
       4212.2562      0.45163569
       4214.2062      0.45414857
       4216.1560      0.45191689
       4218.1059      0.43850061
       4220.0557      0.42840285
       4222.0056      0.42678149
       4223.9555      0.42070033
       4225.9053      0.43660409
       4227.8552      0.45014649
       4229.8050      0.45744833
       4231.7549      0.47577641
       4233.7047      0.48690925
       4235.6546      0.48551585
       4237.6045      0.47011709
       4239.5543      0.45915413
       4241.5042      0.45272849
       4243.4540      0.45699809
       4245.4039      0.47090645
       4247.3537      0.47031373
       4249.3036      0.46065937
       4251.2535      0.46298789
       4253.2033      0.47642885
       4255.1532      0.46754561
       4257.1030      0.46265045
       4259.0529      0.47785269
       4261.0027      0.47695789
       4262.9526      0.46548565
       4264.9026      0.46493473
       4266.8524      0.47697793
       4268.8023      0.47523357
       4270.7521      0.46660593
       4272.7020      0.48191869
       4274.6518      0.49486905
       4276.6017      0.48308065
       4278.5516      0.48660409
       4280.5014      0.48013765
       4282.4513      0.46304133
       4284.4011      0.48472873
       4286.3510      0.49835921
       4288.3008      0.49444577
       4290.2507      0.49211457
       4292.2005      0.47762489
       4294.1504      0.47109737
       4296.1003      0.47505589
       4298.0501      0.48654869
       4300.0000      0.49275457
       4301.9498      0.49721729
       4303.8997      0.49915657
       4305.8495      0.48927249
       4307.7994      0.47990849
       4309.7493      0.48691645
       4311.6991      0.49768321
       4313.6491      0.48735961
       4315.5989      0.49166641
       4317.5488      0.50615541
       4319.4986      0.50095377
       4321.4485      0.48902021
       4323.3984      0.48797629
       4325.3482      0.49275761
       4327.2981      0.50283689
       4329.2479      0.52418997
       4331.1978      0.52993537
       4333.1476      0.52655937
       4335.0975      0.52159921
       4337.0474      0.53463585
       4338.9972      0.52058173
       4340.9471      0.50941497
       4342.8969      0.51475649
       4344.8468      0.53362533
       4346.7966      0.54474213
       4348.7465      0.53949997
       4350.6964      0.54068241
       4352.6462      0.53972733
       4354.5961      0.53121573
       4356.5459      0.53699933
       4358.4958      0.54949093
       4360.4456      0.55618329
       4362.3955      0.56032669
       4364.3455      0.54574253
       4366.2953      0.54552061
       4368.2452      0.56201889
       4370.1950      0.56153929
       4372.1449      0.56257365
       4374.0947      0.56930009
       4376.0446      0.55693813
       4377.9944      0.55040581
       4379.9443      0.54115249
       4381.8942      0.53749401
       4383.8440      0.53564017
       4385.7939      0.54506273
       4387.7437      0.54428225
       4389.6936      0.54052269
       4391.6434      0.51937277
       4393.5933      0.51681745
       4395.5432      0.51763713
       4397.4930      0.50924945
       4399.4429      0.50730749
       4401.3927      0.51109001
       4403.3426      0.50389433
       4405.2924      0.49448885
       4407.2423      0.48711329
       4409.1922      0.48280353
       4411.1420      0.49106149
       4413.0920      0.49396241
       4415.0418      0.48655913
       4416.9917      0.48104201
       4418.9415      0.47136757
       4420.8914      0.47167293
       4422.8413      0.46752353
       4424.7911      0.46945001
       4426.7410      0.46720549
       4428.6908      0.46548145
       4430.6407      0.46983873
       4432.5905      0.47289877
       4434.5404      0.48626289
       4436.4903      0.49940345
       4438.4401      0.49300045
       4440.3900      0.48313021
       4442.3398      0.48892701
       4444.2897      0.48544017
       4446.2395      0.48747293
       4448.1894      0.49594621
       4450.1393      0.48527833
       4452.0891      0.48901329
       4454.0390      0.51760501
       4455.9888      0.51890773
       4457.9387      0.51689749
       4459.8885      0.53010517
       4461.8384      0.53615117
       4463.7883      0.53741889
       4465.7382      0.54587557
       4467.6881      0.55041193
       4469.6379      0.56967241
       4471.5878      0.59514953
       4473.5376      0.59621729
       4475.4875      0.60050681
       4477.4373      0.61641197
       4479.3872      0.62466433
       4481.3371      0.63984149
       4483.2869      0.64844825
       4485.2368      0.64210425
       4487.1866      0.65549093
       4489.1365      0.69210877
       4491.0863      0.70475977
       4493.0362      0.71802169
       4494.9861      0.73862081
       4496.9359      0.75025733
       4498.8858      0.75850177
       4500.8356      0.76655281
       4502.7855      0.77834237
       4504.7353      0.80182973
       4506.6852      0.83208685
       4508.6351      0.84699745
       4510.5849      0.84677565
       4512.5349      0.86715529
       4514.4847      0.88120309
       4516.4346      0.88733217
       4518.3844      0.90191241
       4520.3343      0.90996133
       4522.2842      0.91003897
       4524.2340      0.93322353
       4526.1839      0.96015989
       4528.1337      0.99054529
       4530.0836      0.97532577
       4532.0334      0.97230969
       4533.9833       1.0158695
       4535.9331       1.0493345
       4537.8830       1.0449110
       4539.8329       1.0584393
       4541.7827       1.0774397
       4543.7326       1.1045945
       4545.6824       1.1289933
       4547.6323       1.1306523
       4549.5821       1.1255760
       4551.5320       1.1512125
       4553.4819       1.1941614
       4555.4317       1.2065564
       4557.3816       1.1985029
       4559.3314       1.2058930
       4561.2813       1.2298816
       4563.2312       1.2515599
       4565.1811       1.2690144
       4567.1310       1.2803192
       4569.0808       1.2618004
       4571.0307       1.2552000
       4572.9805       1.3022030
       4574.9304       1.3366374
       4576.8802       1.3666522
       4578.8301       1.3856847
       4580.7800       1.3923050
       4582.7298       1.4272555
       4584.6797       1.4535099
       4586.6295       1.4595327
       4588.5794       1.4835074
       4590.5292       1.5107309
       4592.4791       1.5240841
       4594.4290       1.5540392
       4596.3788       1.5914915
       4598.3287       1.5928444
       4600.2785       1.5744177
       4602.2284       1.5845385
       4604.1782       1.5569592
       4606.1281       1.5337223
       4608.0780       1.5435635
       4610.0278       1.5479260
       4611.9778       1.5408817
       4613.9276       1.5320271
       4615.8775       1.5484116
       4617.8273       1.5542675
       4619.7772       1.5736370
       4621.7270       1.5800404
       4623.6769       1.5503679
       4625.6268       1.5509669
       4627.5766       1.5883931
       4629.5265       1.6100559
       4631.4763       1.5926660
       4633.4262       1.6016751
       4635.3760       1.6292786
       4637.3259       1.6222809
       4639.2758       1.6114567
       4641.2256       1.6057852
       4643.1755       1.5890194
       4645.1253       1.5694285
       4647.0752       1.5900423
       4649.0250       1.5900750
       4650.9749       1.5325160
       4652.9248       1.5072829
       4654.8746       1.5088751
       4656.8245       1.5014448
       4658.7743       1.4883099
       4660.7242       1.4743387
       4662.6741       1.4757184
       4664.6240       1.4852722
       4666.5739       1.4847590
       4668.5237       1.4464722
       4670.4736       1.4211889
       4672.4234       1.4382575
       4674.3733       1.4239477
       4676.3231       1.3772670
       4678.2730       1.3715441
       4680.2229       1.3798689
       4682.1727       1.3525856
       4684.1226       1.3228356
       4686.0724       1.3081091
       4688.0223       1.2980854
       4689.9721       1.2921911
       4691.9220       1.2862919
       4693.8719       1.2809379
       4695.8217       1.2662783
       4697.7716       1.2381034
       4699.7214       1.2082997
       4701.6713       1.1802895
       4703.6211       1.1604385
       4705.5710       1.1414061
       4707.5208       1.1333386
       4709.4707       1.1044250
       4711.4207       1.0761614
       4713.3705       1.0596655
       4715.3204       1.0457089
       4717.2702       1.0498481
       4719.2201       1.0397396
       4721.1699       1.0306731
       4723.1198       1.0418149
       4725.0697       1.0239277
       4727.0195       1.0023895
       4728.9694       1.0062905
       4730.9192       1.0230136
       4732.8691       1.0429986
       4734.8189       1.0328728
       4736.7688       1.0238331
       4738.7187       1.0274336
       4740.6685       1.0256712
       4742.6184       1.0237812
       4744.5682       1.0151315
       4746.5181      0.99671001
       4748.4679      0.99417429
       4750.4178      0.98961917
       4752.3677      0.96295957
       4754.3175      0.95183089
       4756.2674      0.97088289
       4758.2172      0.95602293
       4760.1671      0.94962237
       4762.1170      0.94987165
       4764.0669      0.94956789
       4766.0168      0.95541401
       4767.9666      0.94493429
       4769.9165      0.91305277
       4771.8663      0.90152549
       4773.8162      0.89449405
