Units are: observed wavelength (Ang), observed flux (10^-15 erg/s/cm^2/Ang)
       3473.0000      0.25813340
       3474.4700      0.21607820
       3475.9400      0.14902700
       3477.4100      0.20687590
       3478.8800      0.35349460
       3480.3500      0.60910650
       3481.8200      0.21863620
       3483.2900     -0.33087650
       3484.7600      0.25718920
       3486.2300      0.20783010
       3487.7000      0.11060400
       3489.1700      0.39712500
       3490.6400      0.40409390
       3492.1100      0.20947890
       3493.5800     0.090300600
       3495.0500      0.13759490
       3496.5200      0.28820330
       3497.9900      0.52705380
       3499.4600      0.38313290
       3500.9300     0.028151990
       3502.4000     -0.19649100
       3503.8700      0.22457710
       3505.3400      0.61990920
       3506.8100      0.32805220
       3508.2800      0.46702640
       3509.7500      0.54013190
       3511.2200      0.12689960
       3512.6900     0.097033390
       3514.1600      0.25483330
       3515.6300      0.24480810
       3517.1000      0.20139120
       3518.5700      0.11950890
       3520.0400      0.17297070
       3521.5100      0.13515510
       3522.9800      0.21776420
       3524.4500      0.39507470
       3525.9200      0.34044820
       3527.3900      0.29872770
       3528.8600      0.24179690
       3530.3300     0.050961060
       3531.8000      0.20200840
       3533.2700      0.49907810
       3534.7400      0.34435060
       3536.2100      0.14087580
       3537.6800      0.27139250
       3539.1500      0.71939660
       3540.6200      0.37866700
       3542.0900     0.084279860
       3543.5600      0.22921920
       3545.0300    -0.012493990
       3546.5000      0.13072540
       3547.9700      0.38892910
       3549.4400     0.077637470
       3550.9100      0.17069740
       3552.3800      0.25356860
       3553.8500      0.16207890
       3555.3200      0.39074980
       3556.7900      0.51974540
       3558.2600      0.55254050
       3559.7300      0.36761610
       3561.2000      0.29385470
       3562.6700    -0.036505370
       3564.1400      0.16671560
       3565.6100      0.31312940
       3567.0800      0.20274430
       3568.5500      0.20721960
       3570.0200      0.22177350
       3571.4900      0.44638760
       3572.9600      0.39801570
       3574.4300      0.18669990
       3575.9000     0.080995250
       3577.3700      0.15253300
       3578.8400      0.10580670
       3580.3100      0.16907320
       3581.7800      0.37431780
       3583.2500      0.28885680
       3584.7200      0.15214850
       3586.1900      0.14146100
       3587.6600      0.24163160
       3589.1300      0.25522210
       3590.6000      0.30588870
       3592.0700      0.44782890
       3593.5400      0.59667060
       3595.0100      0.43541370
       3596.4800      0.41428890
       3597.9500      0.39902920
       3599.4200      0.23347130
       3600.8900      0.25546580
       3602.3600      0.37180100
       3603.8300      0.49042250
       3605.3000      0.27341880
       3606.7700      0.29976560
       3608.2400      0.32959990
       3609.7100      0.18796790
       3611.1800      0.27286020
       3612.6500      0.23256580
       3614.1200      0.39142440
       3615.5900      0.40995890
       3617.0600      0.30429950
       3618.5300      0.30530800
       3620.0000      0.50346260
       3621.4700      0.28046730
       3622.9400      0.33250310
       3624.4100      0.35022340
       3625.8800      0.22144070
       3627.3500      0.31558180
       3628.8200      0.11142830
       3630.2900      0.11130920
       3631.7600      0.32803220
       3633.2300      0.37184880
       3634.7000      0.39954390
       3636.1700      0.27972850
       3637.6400     0.083367340
       3639.1100      0.34978470
       3640.5800      0.48078970
       3642.0500      0.15555090
       3643.5200     0.059994660
       3644.9900      0.31745620
       3646.4600      0.56989130
       3647.9300      0.58674320
       3649.4000      0.45719860
       3650.8700      0.43753130
       3652.3400      0.43548640
       3653.8100      0.31215690
       3655.2800      0.37717440
       3656.7500      0.31071550
       3658.2200      0.28870110
       3659.6900      0.34732070
       3661.1600      0.33790230
       3662.6300      0.39830640
       3664.1000      0.34859590
       3665.5700      0.37129620
       3667.0400      0.37142150
       3668.5100      0.34254130
       3669.9800      0.44914030
       3671.4500      0.41543070
       3672.9200      0.43855150
       3674.3900      0.45537020
       3675.8600      0.31307800
       3677.3300      0.37001120
       3678.8000      0.69456300
       3680.2700      0.58337850
       3681.7400      0.38560600
       3683.2100      0.43566240
       3684.6800      0.44239850
       3686.1500      0.48842440
       3687.6200      0.49418680
       3689.0900      0.42390440
       3690.5600      0.44700840
       3692.0300      0.37238060
       3693.5000      0.35625010
       3694.9700      0.47783590
       3696.4400      0.42308470
       3697.9100      0.39210430
       3699.3800      0.54314590
       3700.8500      0.48602500
       3702.3200      0.49487690
       3703.7900      0.56852490
       3705.2600      0.42413860
       3706.7300      0.50517350
       3708.2000      0.38693650
       3709.6700      0.31082120
       3711.1400      0.36489080
       3712.6100      0.36389490
       3714.0800      0.36934020
       3715.5500      0.38283940
       3717.0200      0.28399830
       3718.4900      0.52010700
       3719.9600      0.53017630
       3721.4300      0.55633860
       3722.9000      0.47209830
       3724.3700      0.28889360
       3725.8400      0.31729730
       3727.3100      0.41193690
       3728.7800      0.50192300
       3730.2500      0.45941720
       3731.7200      0.54245570
       3733.1900      0.56413190
       3734.6600      0.48560630
       3736.1300      0.46925350
       3737.6000      0.67340140
       3739.0700      0.68805500
       3740.5400      0.62718760
       3742.0100      0.67706790
       3743.4800      0.64883640
       3744.9501      0.54619040
       3746.4200      0.72248090
       3747.8900      0.72927800
       3749.3600      0.54744220
       3750.8300      0.49179060
       3752.3000      0.56539040
       3753.7700      0.62420640
       3755.2400      0.50186940
       3756.7100      0.44249000
       3758.1800      0.58052920
       3759.6500      0.57120450
       3761.1200      0.48205980
       3762.5900      0.43348710
       3764.0600      0.36880110
       3765.5300      0.43854190
       3767.0000      0.49857230
       3768.4700      0.41536580
       3769.9400      0.39891110
       3771.4100      0.52584860
       3772.8800      0.55000880
       3774.3500      0.34830700
       3775.8200      0.27780070
       3777.2900      0.44541780
       3778.7600      0.37047050
       3780.2300      0.28433690
       3781.7000      0.23653750
       3783.1700      0.31776950
       3784.6400      0.31562700
       3786.1100      0.30921870
       3787.5800      0.25316320
       3789.0500      0.32970420
       3790.5200      0.26363220
       3791.9900      0.23791130
       3793.4600      0.30421920
       3794.9300      0.31212990
       3796.4000      0.28859650
       3797.8700      0.30472310
       3799.3400      0.30344020
       3800.8100      0.28495420
       3802.2800      0.27305450
       3803.7500      0.34927830
       3805.2200      0.31999420
       3806.6900      0.28592130
       3808.1600      0.25996690
       3809.6300      0.22335860
       3811.1000      0.17081890
       3812.5700      0.13765640
       3814.0400      0.26618510
       3815.5100      0.31373310
       3816.9800      0.23171060
       3818.4500      0.32589160
       3819.9200      0.31949430
       3821.3900      0.27741050
       3822.8600      0.29491250
       3824.3300      0.29416380
       3825.8000      0.28381500
       3827.2700      0.32226460
       3828.7400      0.31743110
       3830.2100      0.29862000
       3831.6800      0.27991180
       3833.1500      0.32600120
       3834.6200      0.29127690
       3836.0900      0.33146240
       3837.5600      0.30227280
       3839.0300      0.31533920
       3840.5000      0.42083530
       3841.9700      0.40087890
       3843.4400      0.30220770
       3844.9100      0.28422730
       3846.3800      0.35259040
       3847.8500      0.43808610
       3849.3200      0.45458190
       3850.7900      0.50387450
       3852.2600      0.53294620
       3853.7300      0.45593010
       3855.2000      0.36628140
       3856.6700      0.44654990
       3858.1400      0.44284840
       3859.6100      0.38237470
       3861.0800      0.42518890
       3862.5500      0.47555960
       3864.0200      0.51437000
       3865.4900      0.58102640
       3866.9600      0.55909990
       3868.4300      0.51561650
       3869.9000      0.46988610
       3871.3700      0.47288880
       3872.8400      0.55536610
       3874.3100      0.64500390
       3875.7800      0.58615460
       3877.2500      0.50417400
       3878.7200      0.54098190
       3880.1900      0.62853630
       3881.6600      0.61588560
       3883.1300      0.60901150
       3884.6000      0.56922670
       3886.0700      0.69093820
       3887.5400      0.70006640
       3889.0100      0.68738600
       3890.4800      0.59331460
       3891.9500      0.55933920
       3893.4200      0.68988540
       3894.8900      0.79427400
       3896.3600      0.68794630
       3897.8300      0.69292180
       3899.3000      0.77671930
       3900.7700      0.82301420
       3902.2400      0.71430950
       3903.7100      0.67026170
       3905.1800      0.69240800
       3906.6500      0.75411670
       3908.1200      0.74434910
       3909.5900      0.90750620
       3911.0600      0.86762780
       3912.5300      0.73945620
       3914.0000      0.77335270
       3915.4700      0.87947990
       3916.9400      0.74671010
       3918.4100      0.76904490
       3919.8800      0.92946490
       3921.3500      0.86010460
       3922.8200      0.91120510
       3924.2900      0.99525580
       3925.7600      0.90876630
       3927.2300      0.85740440
       3928.7000      0.88235400
       3930.1700      0.91004200
       3931.6400      0.97061540
       3933.1100      0.96627480
       3934.5800      0.98552560
       3936.0500       1.0573060
       3937.5200       1.0594400
       3938.9900       1.0874560
       3940.4600      0.99213520
       3941.9300      0.95135190
       3943.4000       1.0183520
       3944.8700      0.97599640
       3946.3400      0.95316450
       3947.8100       1.0138900
       3949.2800      0.99594020
       3950.7500      0.94825520
       3952.2200      0.94679530
       3953.6900       1.0541320
       3955.1600       1.0768960
       3956.6300       1.0711420
       3958.1000       1.0654160
       3959.5700       1.0597500
       3961.0400       1.1060060
       3962.5100       1.1347560
       3963.9800       1.0821360
       3965.4500       1.0178100
       3966.9200       1.0423350
       3968.3900       1.1081760
       3969.8600       1.0783040
       3971.3300       1.0661780
       3972.8000       1.1225060
       3974.2700       1.0814410
       3975.7400       1.1728210
       3977.2100       1.2339510
       3978.6800       1.1791500
       3980.1500       1.1667240
       3981.6200       1.0998320
       3983.0900       1.0872550
       3984.5600       1.2049310
       3986.0300       1.1105410
       3987.5000       1.0621870
       3988.9700       1.1820480
       3990.4400       1.2256200
       3991.9100       1.2154660
       3993.3800       1.1737220
       3994.8500       1.1227980
       3996.3200       1.0891520
       3997.7900       1.1281580
       3999.2600       1.1685790
       4000.7300       1.2411440
       4002.2000       1.2061180
       4003.6700       1.0772120
       4005.1400       1.0713570
       4006.6100       1.0926700
       4008.0800       1.1620890
       4009.5500       1.1873450
       4011.0200       1.2107100
       4012.4900       1.1504960
       4013.9600       1.1575630
       4015.4300       1.1142210
       4016.9000       1.0947480
       4018.3700       1.1015370
       4019.8400       1.0932130
       4021.3100       1.1405580
       4022.7800       1.1971650
       4024.2500       1.1414530
       4025.7200       1.1732770
       4027.1900       1.0730480
       4028.6600       1.0827760
       4030.1300       1.1420260
       4031.6000       1.0967740
       4033.0700       1.1325380
       4034.5400       1.1092500
       4036.0100       1.1129790
       4037.4800       1.0547640
       4038.9500       1.0705640
       4040.4200       1.1149420
       4041.8900       1.0842370
       4043.3600       1.1793280
       4044.8300       1.1072690
       4046.3000       1.0454430
       4047.7700       1.1205110
       4049.2400       1.1135360
       4050.7100       1.0232520
       4052.1800       1.1052520
       4053.6500       1.0748310
       4055.1200       1.0505370
       4056.5900       1.0618790
       4058.0601       1.1491240
       4059.5300       1.0693510
       4061.0000      0.96214070
       4062.4700       1.0241580
       4063.9400       1.0583150
       4065.4100       1.0563430
       4066.8800       1.0654410
       4068.3500       1.0456270
       4069.8200       1.0482360
       4071.2900       1.0439230
       4072.7600       1.0483340
       4074.2300       1.0526630
       4075.7000       1.0168780
       4077.1700       1.0537410
       4078.6400       1.0814030
       4080.1100       1.0177470
       4081.5800       1.0190890
       4083.0500      0.93769430
       4084.5200      0.98814200
       4085.9900       1.0058870
       4087.4600      0.97829850
       4088.9300      0.92912830
       4090.4000      0.92998240
       4091.8700      0.91753490
       4093.3400      0.93205580
       4094.8100      0.91677910
       4096.2800      0.90152580
       4097.7500      0.87419220
       4099.2200      0.83901670
       4100.6900      0.91372170
       4102.1600      0.88823620
       4103.6300      0.85931630
       4105.1000      0.86264770
       4106.5700      0.83581540
       4108.0400      0.82731060
       4109.5100      0.84128910
       4110.9800      0.80842370
       4112.4500      0.75356510
       4113.9200      0.75154310
       4115.3900      0.76681460
       4116.8600      0.73680900
       4118.3300      0.73781880
       4119.8000      0.79614350
       4121.2700      0.82507510
       4122.7400      0.80033000
       4124.2100      0.71502950
       4125.6800      0.70060260
       4127.1500      0.71835770
       4128.6200      0.67828110
       4130.0900      0.67142330
       4131.5600      0.62692280
       4133.0300      0.67324750
       4134.5000      0.69382320
       4135.9700      0.69505990
       4137.4400      0.70728750
       4138.9100      0.71688390
       4140.3800      0.67292080
       4141.8500      0.63289540
       4143.3200      0.61679300
       4144.7900      0.58005680
       4146.2600      0.68062090
       4147.7300      0.68149690
       4149.2000      0.63380290
       4150.6700      0.62713180
       4152.1400      0.60281930
       4153.6100      0.59088440
       4155.0800      0.53599380
       4156.5500      0.56643930
       4158.0200      0.52890880
       4159.4900      0.57006310
       4160.9600      0.62283060
       4162.4300      0.69265260
       4163.9000      0.63155030
       4165.3700      0.56760750
       4166.8400      0.53866500
       4168.3100      0.61311080
       4169.7800      0.54105930
       4171.2500      0.46798070
       4172.7200      0.52316020
       4174.1900      0.51978520
       4175.6600      0.55883320
       4177.1300      0.63399650
       4178.6000      0.66710700
       4180.0700      0.56606790
       4181.5400      0.54088960
       4183.0100      0.58365310
       4184.4800      0.54103240
       4185.9500      0.55934290
       4187.4200      0.52670560
       4188.8900      0.59175360
       4190.3600      0.56615930
       4191.8300      0.45402220
       4193.3000      0.49819560
       4194.7700      0.59550030
       4196.2400      0.51356120
       4197.7100      0.49947010
       4199.1800      0.55252190
       4200.6500      0.52906410
       4202.1200      0.54361680
       4203.5900      0.61820580
       4205.0600      0.59081520
       4206.5300      0.60613560
       4208.0000      0.57035610
       4209.4700      0.57390140
       4210.9400      0.60263240
       4212.4100      0.63562750
       4213.8800      0.69074020
       4215.3500      0.64076590
       4216.8200      0.63618480
       4218.2900      0.62617000
       4219.7600      0.56687120
       4221.2300      0.60026830
       4222.7000      0.64924480
       4224.1700      0.63624600
       4225.6400      0.63450890
       4227.1100      0.63890030
       4228.5800      0.70183960
       4230.0500      0.68542610
       4231.5200      0.66617870
       4232.9900      0.68607120
       4234.4600      0.72616770
       4235.9300      0.73282400
       4237.4000      0.68339300
       4238.8700      0.66054350
       4240.3400      0.64530780
       4241.8100      0.57751040
       4243.2800      0.65950760
       4244.7500      0.74563850
       4246.2200      0.70576320
       4247.6900      0.65991190
       4249.1600      0.65170290
       4250.6300      0.67171000
       4252.1000      0.63777320
       4253.5700      0.62748930
       4255.0400      0.65596860
       4256.5100      0.65672330
       4257.9800      0.60694180
       4259.4500      0.70772760
       4260.9200      0.80032050
       4262.3900      0.70313980
       4263.8600      0.64370360
       4265.3300      0.69224220
       4266.8000      0.71241990
       4268.2700      0.70499400
       4269.7400      0.67996740
       4271.2100      0.64094810
       4272.6800      0.63769880
       4274.1500      0.64735210
       4275.6200      0.63205810
       4277.0900      0.63967480
       4278.5600      0.67503600
       4280.0300      0.67823580
       4281.5000      0.67801930
       4282.9700      0.63160160
       4284.4400      0.69961110
       4285.9100      0.70720940
       4287.3800      0.67328880
       4288.8500      0.68946120
       4290.3200      0.66351100
       4291.7900      0.68115570
       4293.2600      0.71927840
       4294.7300      0.66426200
       4296.2000      0.67331300
       4297.6700      0.65189790
       4299.1400      0.63150040
       4300.6100      0.70326660
       4302.0800      0.70773600
       4303.5500      0.73696570
       4305.0200      0.67963240
       4306.4900      0.62889290
       4307.9600      0.65804130
       4309.4300      0.68833940
       4310.9000      0.70447500
       4312.3700      0.78995950
       4313.8400      0.80049100
       4315.3100      0.71832870
       4316.7800      0.68393620
       4318.2500      0.64019210
       4319.7200      0.66031550
       4321.1900      0.69761860
       4322.6600      0.72467820
       4324.1300      0.69082720
       4325.6000      0.71120080
       4327.0700      0.72127300
       4328.5400      0.71001540
       4330.0100      0.75613030
       4331.4800      0.73703990
       4332.9500      0.67237120
       4334.4200      0.72938750
       4335.8900      0.75929110
       4337.3600      0.74387290
       4338.8300      0.74112670
       4340.3000      0.71841090
       4341.7700      0.73760860
       4343.2400      0.72953860
       4344.7100      0.71763470
       4346.1800      0.70787870
       4347.6500      0.76744930
       4349.1200      0.79890980
       4350.5900      0.70867290
       4352.0600      0.71400170
       4353.5300      0.66150230
       4355.0000      0.75034370
       4356.4700      0.82366780
       4357.9400      0.75815240
