Units are: observed wavelength (Ang), observed flux (10^-15 erg/s/cm^2/Ang)
       3475.0000      0.36191390
       3476.4700      0.30857260
       3477.9400    0.0057659800
       3479.4100      0.18013120
       3480.8800     0.043769420
       3482.3500       1.4922790
       3483.8200       3.3834840
       3485.2900      0.31844380
       3486.7600      0.16157670
       3488.2300     0.097472120
       3489.7000      0.16991380
       3491.1700     0.021884740
       3492.6400      0.16508410
       3494.1100      0.24376980
       3495.5800      0.55225070
       3497.0500      0.65263310
       3498.5201     -0.21798240
       3499.9900     -0.20906070
       3501.4600     0.082770820
       3502.9300    -0.028958980
       3504.4000    0.0014263330
       3505.8700      0.26185800
       3507.3400      0.76430580
       3508.8100      0.38661250
       3510.2800    -0.023936520
       3511.7500      0.30487010
       3513.2200      0.21643110
       3514.6900     -0.29180510
       3516.1600     -0.43992810
       3517.6300   -0.0099387640
       3519.1000     0.046341390
       3520.5700      0.13673470
       3522.0400      0.29649080
       3523.5100      0.24830860
       3524.9800     0.067188150
       3526.4500     -0.16297490
       3527.9200     -0.51961920
       3529.3900     -0.19342610
       3530.8600      0.37921380
       3532.3300      0.27829970
       3533.8000      0.29110950
       3535.2700    -0.078687500
       3536.7400     0.088074870
       3538.2100      0.36162520
       3539.6800    -0.071980700
       3541.1500    0.0099676130
       3542.6200      0.11908480
       3544.0900      0.59306440
       3545.5600      0.13703410
       3547.0300     -0.51232880
       3548.5000     -0.40428700
       3549.9700     -0.15925090
       3551.4400      0.12627230
       3552.9100     0.056203120
       3554.3800     -0.29123460
       3555.8500     -0.21314240
       3557.3200     0.031355840
       3558.7900     0.027646630
       3560.2600    -0.036789670
       3561.7300     -0.11035920
       3563.2000    0.0020821020
       3564.6700     0.055250530
       3566.1400    -0.014514690
       3567.6100     0.052947980
       3569.0800  -0.00067794070
       3570.5500     -0.12999090
       3572.0200      0.20268640
       3573.4900     0.074798860
       3574.9600     0.085905830
       3576.4300      0.13389970
       3577.9000      0.28022330
       3579.3700     0.073273450
       3580.8400      0.13242290
       3582.3100      0.33048410
       3583.7800    -0.065619390
       3585.2500     -0.18965950
       3586.7200     0.069594040
       3588.1900      0.24179730
       3589.6600      0.11267790
       3591.1300      0.42893840
       3592.6000      0.51509740
       3594.0700     0.021546600
       3595.5400     0.075565580
       3597.0100      0.29816940
       3598.4800     0.029348500
       3599.9500    -0.046057160
       3601.4200      0.18883030
       3602.8900     0.069731600
       3604.3600      0.14127010
       3605.8300      0.46810080
       3607.3000    -0.017789730
       3608.7700    -0.021443230
       3610.2400      0.18535710
       3611.7100    -0.052674650
       3613.1800     -0.11488410
       3614.6500     0.020399920
       3616.1200      0.35760940
       3617.5900       1.9661910
       3619.0600      0.66304350
       3620.5300     0.034689840
       3622.0000      0.29305990
       3623.4700     0.092726820
       3624.9400      0.62991890
       3626.4100      0.21136840
       3627.8800   -0.0068097490
       3629.3500     0.048357010
       3630.8200      0.16144040
       3632.2900      0.26501490
       3633.7600      0.18630650
       3635.2300      0.19809570
       3636.7000      0.20019740
       3638.1700      0.29464320
       3639.6400      0.21762520
       3641.1100      0.15016070
       3642.5800      0.43029890
       3644.0500      0.61262710
       3645.5200      0.19756200
       3646.9900      0.40048700
       3648.4600      0.61656490
       3649.9300      0.42387690
       3651.4000    -0.029046730
       3652.8700    -0.015310210
       3654.3400    -0.040581360
       3655.8100      0.10263420
       3657.2800      0.23248310
       3658.7500      0.33529920
       3660.2200     0.066276130
       3661.6900     0.062830020
       3663.1600      0.31873620
       3664.6300      0.19625710
       3666.1000    -0.060025300
       3667.5700      0.11400020
       3669.0400      0.16165610
       3670.5100      0.15653780
       3671.9800      0.32621080
       3673.4500      0.39130260
       3674.9200      0.21615900
       3676.3900      0.12000860
       3677.8600      0.35239220
       3679.3300      0.43773140
       3680.8000      0.22899400
       3682.2700      0.13683060
       3683.7400      0.28467640
       3685.2100      0.13784320
       3686.6800      0.18111160
       3688.1500      0.10830330
       3689.6200      0.87074450
       3691.0900      0.37347230
       3692.5600     -0.11098920
       3694.0300      0.11526570
       3695.5000      0.26551140
       3696.9700      0.15146870
       3698.4400      0.26736140
       3699.9100      0.26705800
       3701.3800      0.14444210
       3702.8500      0.10033870
       3704.3200      0.17591620
       3705.7900      0.13592460
       3707.2600      0.38049560
       3708.7300     0.093818130
       3710.2000      0.15800850
       3711.6700      0.15406960
       3713.1400     0.059842710
       3714.6100      0.13382830
       3716.0800      0.42003780
       3717.5500      0.24295040
       3719.0200      0.15055890
       3720.4900      0.36871190
       3721.9600      0.34639140
       3723.4300    -0.084202540
       3724.9000     0.026304160
       3726.3700      0.12841120
       3727.8400      0.40008340
       3729.3100      0.48569010
       3730.7800     -0.12643100
       3732.2500     0.062715440
       3733.7200     0.046808520
       3735.1900     0.053020430
       3736.6600      0.11890020
       3738.1300      0.33354020
       3739.6000      0.19768960
       3741.0700    -0.023331300
       3742.5400      0.43321500
       3744.0100      0.59950070
       3745.4800      0.31240190
       3746.9500      0.26281930
       3748.4200      0.16280670
       3749.8900      0.18408330
       3751.3600      0.16715440
       3752.8300      0.12080830
       3754.3000      0.18678770
       3755.7700      0.14424620
       3757.2400      0.10625720
       3758.7100      0.27151300
       3760.1800      0.21023490
       3761.6500      0.24834310
       3763.1200     0.073237660
       3764.5900     0.082724300
       3766.0600      0.22097530
       3767.5300      0.23828350
       3769.0000      0.30489450
       3770.4700      0.34465030
       3771.9400     0.058878030
       3773.4100      0.20932880
       3774.8800      0.44186160
       3776.3500      0.24101150
       3777.8200      0.27785570
       3779.2900      0.15804940
       3780.7600      0.15282790
       3782.2300   0.00080948140
       3783.7000     0.054843490
       3785.1700      0.21311310
       3786.6400      0.23701480
       3788.1100     0.029694440
       3789.5800     0.093322310
       3791.0500      0.16429390
       3792.5200      0.16865510
       3793.9900      0.12104180
       3795.4600      0.19674460
       3796.9300     0.061533180
       3798.4000      0.31443370
       3799.8700      0.13270620
       3801.3400     0.051440010
       3802.8100      0.16530130
       3804.2800      0.29511500
       3805.7500      0.38190640
       3807.2200      0.28767970
       3808.6900      0.17789170
       3810.1600      0.17223050
       3811.6301      0.32980430
       3813.1000      0.11455960
       3814.5700     0.084399970
       3816.0400     0.083662840
       3817.5100     0.080235570
       3818.9800     0.032109300
       3820.4500      0.12581260
       3821.9200      0.14346190
       3823.3900    -0.036782990
       3824.8600     0.088388050
       3826.3300      0.15148260
       3827.8000      0.14087890
       3829.2700      0.26813280
       3830.7400      0.18308940
       3832.2100      0.20454730
       3833.6800      0.19491860
       3835.1500      0.41628330
       3836.6200      0.13177790
       3838.0900     0.048336750
       3839.5600      0.10302710
       3841.0300      0.10875660
       3842.5000     0.071095820
       3843.9700     0.050713010
       3845.4400     0.046133840
       3846.9100      0.12178240
       3848.3800      0.17300810
       3849.8500      0.13239120
       3851.3200      0.24105520
       3852.7900      0.26084520
       3854.2600      0.22320470
       3855.7300      0.13922590
       3857.2000      0.14944410
       3858.6700      0.20415490
       3860.1400     0.045979220
       3861.6100     0.023721870
       3863.0800     0.086921420
       3864.5500     0.024124920
       3866.0200      0.24708170
       3867.4900      0.19895650
       3868.9600      0.19069590
       3870.4300      0.37106260
       3871.9000      0.33758990
       3873.3700      0.26143810
       3874.8400      0.19165240
       3876.3100      0.24511450
       3877.7800      0.16041360
       3879.2500      0.18015320
       3880.7200      0.30733780
       3882.1900      0.37261050
       3883.6600      0.11883840
       3885.1300      0.21718340
       3886.6000      0.21011210
       3888.0700      0.17188100
       3889.5400     0.072558930
       3891.0100      0.11690290
       3892.4800      0.19935610
       3893.9500      0.17277260
       3895.4200      0.30194970
       3896.8900      0.13650670
       3898.3600      0.18369470
       3899.8300      0.46113810
       3901.3000      0.19025900
       3902.7700      0.13104800
       3904.2400      0.33752880
       3905.7100      0.34495850
       3907.1800      0.22298600
       3908.6500      0.27316800
       3910.1200      0.19555370
       3911.5900      0.31261370
       3913.0600      0.42450560
       3914.5300      0.40830730
       3916.0000      0.20411970
       3917.4700      0.39316620
       3918.9400      0.33657890
       3920.4100      0.24019410
       3921.8800      0.40162890
       3923.3500      0.30231620
       3924.8200      0.37784220
       3926.2900      0.29026480
       3927.7600      0.15919900
       3929.2300      0.18774660
       3930.7000      0.40593790
       3932.1700      0.43063350
       3933.6400      0.18429780
       3935.1100      0.34831620
       3936.5800      0.42059620
       3938.0500      0.31859470
       3939.5200      0.21837100
       3940.9900      0.26704620
       3942.4600      0.43289190
       3943.9300      0.44542260
       3945.4000      0.35503760
       3946.8700      0.26427770
       3948.3400      0.35434720
       3949.8100      0.53591310
       3951.2800      0.32481150
       3952.7500      0.41787250
       3954.2200      0.45291070
       3955.6900      0.26845220
       3957.1600      0.27919090
       3958.6300      0.39071290
       3960.1000      0.51149730
       3961.5700      0.41860920
       3963.0400      0.32232000
       3964.5100      0.40005670
       3965.9800      0.31163640
       3967.4500      0.21812110
       3968.9200      0.29931500
       3970.3900      0.62798630
       3971.8600      0.52583250
       3973.3300      0.47110880
       3974.8000      0.37838060
       3976.2700      0.28924970
       3977.7400      0.39940660
       3979.2100      0.45616360
       3980.6800      0.46233510
       3982.1500      0.44823440
       3983.6200      0.31640770
       3985.0900      0.25739450
       3986.5600      0.27750360
       3988.0300      0.47915200
       3989.5000      0.64580570
       3990.9700      0.64040460
       3992.4400      0.45846440
       3993.9100      0.39535420
       3995.3800      0.31340280
       3996.8500      0.35539020
       3998.3200      0.45232930
       3999.7900      0.31219250
       4001.2600      0.45572650
       4002.7300      0.26201200
       4004.2000      0.46102730
       4005.6700      0.39471430
       4007.1400      0.31207530
       4008.6100      0.64193060
       4010.0800      0.51415410
       4011.5500      0.32925520
       4013.0200      0.28046910
       4014.4900      0.48265530
       4015.9600      0.57101050
       4017.4300      0.46872780
       4018.9000      0.46646030
       4020.3700      0.53326240
       4021.8400      0.45114860
       4023.3100      0.35347090
       4024.7800      0.39366920
       4026.2500      0.41004160
       4027.7200      0.39619420
       4029.1900      0.31342970
       4030.6600      0.29204650
       4032.1300      0.35595260
       4033.6000      0.45211260
       4035.0700      0.46050920
       4036.5400      0.52074440
       4038.0100      0.44401370
       4039.4800      0.49842280
       4040.9500      0.46816430
       4042.4200      0.70469830
       4043.8900      0.35728340
       4045.3600      0.51487270
       4046.8300      0.50850710
       4048.3000      0.41635650
       4049.7700      0.43360980
       4051.2400      0.43458070
       4052.7100      0.40369110
       4054.1800      0.46094800
       4055.6500      0.48424280
       4057.1200      0.39620090
       4058.5900      0.29228330
       4060.0600      0.34712750
       4061.5300      0.49087230
       4063.0000      0.37255920
       4064.4700      0.36154300
       4065.9400      0.40927370
       4067.4100      0.44946780
       4068.8800      0.44139750
       4070.3500      0.43306740
       4071.8200      0.42572600
       4073.2900      0.45780990
       4074.7600      0.41891880
       4076.2300      0.41205430
       4077.7000      0.33153840
       4079.1700      0.38698340
       4080.6400      0.36818810
       4082.1100      0.29003550
       4083.5800      0.35791230
       4085.0500      0.41493560
       4086.5200      0.48954800
       4087.9900      0.41252780
       4089.4600      0.35559440
       4090.9300      0.40488870
       4092.4000      0.26790170
       4093.8700      0.24594580
       4095.3400      0.37802170
       4096.8100      0.43109670
       4098.2800      0.47604420
       4099.7500      0.45377810
       4101.2200      0.36384180
       4102.6900      0.37079380
       4104.1600      0.31555830
       4105.6300      0.27070700
       4107.1000      0.36815630
       4108.5700      0.37484740
       4110.0400      0.34691760
       4111.5100      0.29749370
       4112.9800      0.24217300
       4114.4500      0.30107590
       4115.9200      0.28000100
       4117.3900      0.20766270
       4118.8600      0.24736460
       4120.3300      0.22960440
       4121.8000      0.23868930
       4123.2700      0.27738610
       4124.7399      0.29975950
       4126.2100      0.32251390
       4127.6800      0.21178360
       4129.1500      0.14785710
       4130.6200      0.29354970
       4132.0900      0.33109830
       4133.5600      0.25188100
       4135.0300      0.21921520
       4136.5000      0.19119080
       4137.9700      0.20651250
       4139.4400      0.24766500
       4140.9100      0.34125810
       4142.3800      0.38028710
       4143.8500      0.31815400
       4145.3200      0.30532780
       4146.7900      0.36071830
       4148.2600      0.25649810
       4149.7300      0.23111770
       4151.2000      0.34154120
       4152.6700      0.33772940
       4154.1400      0.33142380
       4155.6100      0.33760830
       4157.0800      0.26102540
       4158.5500      0.28158460
       4160.0200      0.30355420
       4161.4900      0.31694680
       4162.9600      0.30881710
       4164.4300      0.18282350
       4165.9000      0.19432390
       4167.3700      0.17169690
       4168.8400      0.16835300
       4170.3100      0.26578050
       4171.7800      0.33166810
       4173.2500      0.25122220
       4174.7200      0.25711270
       4176.1900      0.32529810
       4177.6600      0.30751470
       4179.1300      0.24165450
       4180.6000      0.19047860
       4182.0700      0.19973620
       4183.5400      0.29161770
       4185.0100      0.29012580
       4186.4800      0.26516760
       4187.9500      0.24712470
       4189.4200      0.17392090
       4190.8900      0.21792580
       4192.3600      0.23524270
       4193.8300      0.20675600
       4195.3000      0.19387820
       4196.7700      0.15583630
       4198.2400      0.22341630
       4199.7100      0.28068960
       4201.1800      0.21419490
       4202.6500      0.14259230
       4204.1200      0.21093230
       4205.5900      0.20276080
       4207.0600      0.19136020
       4208.5300      0.21476460
       4210.0000      0.20291180
       4211.4700      0.19053560
       4212.9400      0.26493090
       4214.4100      0.27934510
       4215.8800      0.25138890
       4217.3500      0.22721270
       4218.8200      0.24200890
       4220.2900      0.21415640
       4221.7600      0.20110260
       4223.2300      0.21538540
       4224.7000      0.21047950
       4226.1700      0.28875090
       4227.6400      0.25351860
       4229.1100      0.21294080
       4230.5800      0.26366390
       4232.0500      0.26330570
       4233.5200      0.25746800
       4234.9900      0.27337990
       4236.4600      0.23783310
       4237.9300      0.20905680
       4239.4000      0.26048840
       4240.8700      0.25758030
       4242.3400      0.26295720
       4243.8100      0.26608440
       4245.2800      0.22859500
       4246.7500      0.24749740
       4248.2200      0.25173980
       4249.6900      0.31398930
       4251.1600      0.29993880
       4252.6300      0.24575920
       4254.1000      0.26075120
       4255.5700      0.25575690
       4257.0400      0.25327700
       4258.5100      0.30077080
       4259.9800      0.32354160
       4261.4500      0.27679040
       4262.9200      0.24121150
       4264.3900      0.28192010
       4265.8600      0.27231550
       4267.3300      0.23752950
       4268.8000      0.27000150
       4270.2700      0.27031070
       4271.7400      0.26686580
       4273.2100      0.24927200
       4274.6800      0.26345870
       4276.1500      0.23597220
       4277.6200      0.29301440
       4279.0900      0.26891530
       4280.5600      0.21512460
       4282.0300      0.21274600
       4283.5000      0.26282000
       4284.9700      0.27740320
       4286.4400      0.23686420
       4287.9100      0.23025010
       4289.3800      0.28081660
       4290.8500      0.29601700
       4292.3200      0.30563830
       4293.7900      0.31665020
       4295.2600      0.28298620
       4296.7300      0.29385580
       4298.2000      0.30667100
       4299.6700      0.29851480
       4301.1400      0.26450710
       4302.6100      0.27645960
       4304.0800      0.27119540
       4305.5500      0.27901630
       4307.0200      0.30632080
       4308.4900      0.29072590
       4309.9600      0.27515230
       4311.4300      0.28609960
       4312.9000      0.27424420
       4314.3700      0.31129010
       4315.8400      0.23528220
       4317.3100      0.24476820
       4318.7800      0.26382760
       4320.2500      0.29524810
       4321.7200      0.27327730
       4323.1900      0.28789150
       4324.6600      0.27638470
       4326.1300      0.25474530
       4327.6000      0.29088260
       4329.0700      0.28710780
       4330.5400      0.26102450
       4332.0100      0.28563840
       4333.4800      0.28351500
       4334.9500      0.27686290
       4336.4200      0.23423740
       4337.8900      0.25728790
       4339.3600      0.26598790
       4340.8300      0.25889590
       4342.3000      0.31302350
       4343.7700      0.30317090
       4345.2400      0.25765460
       4346.7100      0.29338290
       4348.1800      0.28850840
       4349.6500      0.29855980
       4351.1200      0.25728520
       4352.5900      0.27923350
       4354.0600      0.29663090
       4355.5300      0.27462570
       4357.0000      0.24753490
       4358.4700      0.29564480
       4359.9400      0.28555300
